REVNUM:,NSMA WG16.99.050
REVDAT:,20050520
ANTMAN:,COMPROD
MODNUM:,YAGI 290-70_V     
DESCR1:,CP290 Series VHF Yagi Antennas
DESCR2:,Vertical polarization
DESCR3:,0 deg dt
DESCR4:,Directional
DTDATA:,20050101
LOWFRQ:,148.0
HGHFRQ:,158.0
GUNITS:,DBD/DBR
MDGAIN:,9.02
AZWIDT:,55.7
ELWIDT:,46.8
CONTYP:,N
ATVSWR:,1.5
ELTILT:,0.0
MAXPOW:,500
ANTLEN:,0 dimension L
ANTWID:,0 dimension W
ANTDEP:,0 dimension H
ANTWGT:,0 weight in kg
PATTYP:,TYPICAL
NOFREQ:,1
PATFRE:,148.0
NUMCUT:,2
PATCUT:,AZ
POLARI:,V/V
NUPOIN:,360
FSTLST:,-180,179
-180.000,-14.680
-179.000,-14.700
-178.000,-14.710
-177.000,-14.740
-176.000,-14.770
-175.000,-14.810
-174.000,-14.850
-173.000,-14.910
-172.000,-14.970
-171.000,-15.040
-170.000,-15.120
-169.000,-15.200
-168.000,-15.300
-167.000,-15.400
-166.000,-15.520
-165.000,-15.650
-164.000,-15.780
-163.000,-15.930
-162.000,-16.090
-161.000,-16.260
-160.000,-16.450
-159.000,-16.650
-158.000,-16.860
-157.000,-17.090
-156.000,-17.340
-155.000,-17.600
-154.000,-17.880
-153.000,-18.190
-152.000,-18.510
-151.000,-18.860
-150.000,-19.230
-149.000,-19.620
-148.000,-20.050
-147.000,-20.500
-146.000,-20.990
-145.000,-21.520
-144.000,-22.080
-143.000,-22.690
-142.000,-23.350
-141.000,-24.060
-140.000,-24.830
-139.000,-25.670
-138.000,-26.600
-137.000,-27.610
-136.000,-28.720
-135.000,-29.960
-134.000,-31.320
-133.000,-32.820
-132.000,-34.430
-131.000,-36.030
-130.000,-37.350
-129.000,-37.940
-128.000,-37.580
-127.000,-36.550
-126.000,-35.290
-125.000,-34.040
-124.000,-32.900
-123.000,-31.890
-122.000,-30.980
-121.000,-30.170
-120.000,-29.440
-119.000,-28.770
-118.000,-28.130
-117.000,-27.530
-116.000,-26.940
-115.000,-26.350
-114.000,-25.770
-113.000,-25.170
-112.000,-24.570
-111.000,-23.950
-110.000,-23.320
-109.000,-22.680
-108.000,-22.040
-107.000,-21.400
-106.000,-20.770
-105.000,-20.140
-104.000,-19.520
-103.000,-18.910
-102.000,-18.320
-101.000,-17.750
-100.000,-17.200
 -99.000,-16.680
 -98.000,-16.170
 -97.000,-15.690
 -96.000,-15.230
 -95.000,-14.800
 -94.000,-14.390
 -93.000,-14.000
 -92.000,-13.640
 -91.000,-13.310
 -90.000,-13.000
 -89.000,-12.720
 -88.000,-12.460
 -87.000,-12.220
 -86.000,-12.020
 -85.000,-11.830
 -84.000,-11.670
 -83.000,-11.540
 -82.000,-11.440
 -81.000,-11.360
 -80.000,-11.300
 -79.000,-11.280
 -78.000,-11.280
 -77.000,-11.310
 -76.000,-11.370
 -75.000,-11.460
 -74.000,-11.580
 -73.000,-11.730
 -72.000,-11.910
 -71.000,-12.130
 -70.000,-12.380
 -69.000,-12.660
 -68.000,-12.990
 -67.000,-13.340
 -66.000,-13.730
 -65.000,-14.150
 -64.000,-14.590
 -63.000,-15.050
 -62.000,-15.500
 -61.000,-15.930
 -60.000,-16.290
 -59.000,-16.560
 -58.000,-16.690
 -57.000,-16.640
 -56.000,-16.420
 -55.000,-16.020
 -54.000,-15.490
 -53.000,-14.860
 -52.000,-14.160
 -51.000,-13.440
 -50.000,-12.720
 -49.000,-12.000
 -48.000,-11.310
 -47.000,-10.640
 -46.000,-10.010
 -45.000, -9.400
 -44.000, -8.820
 -43.000, -8.280
 -42.000, -7.760
 -41.000, -7.270
 -40.000, -6.800
 -39.000, -6.360
 -38.000, -5.950
 -37.000, -5.550
 -36.000, -5.180
 -35.000, -4.830
 -34.000, -4.490
 -33.000, -4.180
 -32.000, -3.880
 -31.000, -3.590
 -30.000, -3.320
 -29.000, -3.070
 -28.000, -2.830
 -27.000, -2.600
 -26.000, -2.380
 -25.000, -2.180
 -24.000, -1.990
 -23.000, -1.810
 -22.000, -1.640
 -21.000, -1.480
 -20.000, -1.330
 -19.000, -1.190
 -18.000, -1.060
 -17.000, -0.930
 -16.000, -0.820
 -15.000, -0.710
 -14.000, -0.620
 -13.000, -0.530
 -12.000, -0.440
 -11.000, -0.370
 -10.000, -0.300
  -9.000, -0.240
  -8.000, -0.190
  -7.000, -0.140
  -6.000, -0.100
  -5.000, -0.070
  -4.000, -0.040
  -3.000, -0.020
  -2.000, -0.010
  -1.000,  0.000
   0.000,  0.000
   1.000, -0.010
   2.000, -0.020
   3.000, -0.050
   4.000, -0.070
   5.000, -0.110
   6.000, -0.150
   7.000, -0.200
   8.000, -0.250
   9.000, -0.310
  10.000, -0.380
  11.000, -0.460
  12.000, -0.550
  13.000, -0.640
  14.000, -0.740
  15.000, -0.850
  16.000, -0.970
  17.000, -1.100
  18.000, -1.240
  19.000, -1.390
  20.000, -1.550
  21.000, -1.720
  22.000, -1.900
  23.000, -2.090
  24.000, -2.300
  25.000, -2.520
  26.000, -2.750
  27.000, -3.000
  28.000, -3.260
  29.000, -3.540
  30.000, -3.840
  31.000, -4.150
  32.000, -4.490
  33.000, -4.850
  34.000, -5.230
  35.000, -5.630
  36.000, -6.060
  37.000, -6.520
  38.000, -7.010
  39.000, -7.540
  40.000, -8.100
  41.000, -8.700
  42.000, -9.350
  43.000,-10.050
  44.000,-10.800
  45.000,-11.600
  46.000,-12.470
  47.000,-13.410
  48.000,-14.400
  49.000,-15.430
  50.000,-16.470
  51.000,-17.440
  52.000,-18.230
  53.000,-18.690
  54.000,-18.730
  55.000,-18.360
  56.000,-17.690
  57.000,-16.870
  58.000,-16.000
  59.000,-15.140
  60.000,-14.330
  61.000,-13.590
  62.000,-12.910
  63.000,-12.290
  64.000,-11.730
  65.000,-11.230
  66.000,-10.780
  67.000,-10.380
  68.000,-10.030
  69.000, -9.720
  70.000, -9.440
  71.000, -9.200
  72.000, -9.000
  73.000, -8.830
  74.000, -8.690
  75.000, -8.580
  76.000, -8.500
  77.000, -8.440
  78.000, -8.420
  79.000, -8.420
  80.000, -8.440
  81.000, -8.490
  82.000, -8.570
  83.000, -8.670
  84.000, -8.790
  85.000, -8.940
  86.000, -9.110
  87.000, -9.310
  88.000, -9.530
  89.000, -9.780
  90.000,-10.050
  91.000,-10.340
  92.000,-10.670
  93.000,-11.020
  94.000,-11.390
  95.000,-11.800
  96.000,-12.230
  97.000,-12.700
  98.000,-13.190
  99.000,-13.720
 100.000,-14.280
 101.000,-14.880
 102.000,-15.510
 103.000,-16.180
 104.000,-16.880
 105.000,-17.630
 106.000,-18.410
 107.000,-19.230
 108.000,-20.080
 109.000,-20.950
 110.000,-21.830
 111.000,-22.690
 112.000,-23.480
 113.000,-24.180
 114.000,-24.710
 115.000,-25.050
 116.000,-25.170
 117.000,-25.080
 118.000,-24.840
 119.000,-24.490
 120.000,-24.070
 121.000,-23.630
 122.000,-23.180
 123.000,-22.750
 124.000,-22.340
 125.000,-21.960
 126.000,-21.600
 127.000,-21.270
 128.000,-20.970
 129.000,-20.690
 130.000,-20.430
 131.000,-20.190
 132.000,-19.970
 133.000,-19.760
 134.000,-19.560
 135.000,-19.370
 136.000,-19.190
 137.000,-19.020
 138.000,-18.850
 139.000,-18.680
 140.000,-18.520
 141.000,-18.360
 142.000,-18.210
 143.000,-18.050
 144.000,-17.900
 145.000,-17.740
 146.000,-17.590
 147.000,-17.440
 148.000,-17.290
 149.000,-17.140
 150.000,-17.000
 151.000,-16.860
 152.000,-16.720
 153.000,-16.580
 154.000,-16.450
 155.000,-16.310
 156.000,-16.190
 157.000,-16.070
 158.000,-15.950
 159.000,-15.830
 160.000,-15.720
 161.000,-15.620
 162.000,-15.520
 163.000,-15.430
 164.000,-15.340
 165.000,-15.250
 166.000,-15.180
 167.000,-15.100
 168.000,-15.040
 169.000,-14.970
 170.000,-14.920
 171.000,-14.870
 172.000,-14.820
 173.000,-14.790
 174.000,-14.750
 175.000,-14.730
 176.000,-14.710
 177.000,-14.690
 178.000,-14.680
 179.000,-14.680
PATCUT:,EL
POLARI:,V/V
NUPOIN:,360
FSTLST:,-180,179
-180.000,-14.680
-179.000,-14.690
-178.000,-14.700
-177.000,-14.730
-176.000,-14.760
-175.000,-14.800
-174.000,-14.860
-173.000,-14.920
-172.000,-14.990
-171.000,-15.070
-170.000,-15.160
-169.000,-15.260
-168.000,-15.370
-167.000,-15.490
-166.000,-15.630
-165.000,-15.770
-164.000,-15.920
-163.000,-16.090
-162.000,-16.260
-161.000,-16.440
-160.000,-16.640
-159.000,-16.850
-158.000,-17.070
-157.000,-17.300
-156.000,-17.540
-155.000,-17.790
-154.000,-18.060
-153.000,-18.340
-152.000,-18.630
-151.000,-18.930
-150.000,-19.250
-149.000,-19.580
-148.000,-19.920
-147.000,-20.270
-146.000,-20.640
-145.000,-21.020
-144.000,-21.410
-143.000,-21.810
-142.000,-22.230
-141.000,-22.670
-140.000,-23.120
-139.000,-23.580
-138.000,-24.060
-137.000,-24.550
-136.000,-25.060
-135.000,-25.590
-134.000,-26.140
-133.000,-26.710
-132.000,-27.310
-131.000,-27.920
-130.000,-28.570
-129.000,-29.230
-128.000,-29.930
-127.000,-30.650
-126.000,-31.390
-125.000,-32.130
-124.000,-32.870
-123.000,-33.580
-122.000,-34.210
-121.000,-34.720
-120.000,-35.060
-119.000,-35.190
-118.000,-35.100
-117.000,-34.830
-116.000,-34.410
-115.000,-33.910
-114.000,-33.370
-113.000,-32.830
-112.000,-32.300
-111.000,-31.820
-110.000,-31.370
-109.000,-30.990
-108.000,-30.650
-107.000,-30.380
-106.000,-30.170
-105.000,-30.020
-104.000,-29.930
-103.000,-29.910
-102.000,-29.960
-101.000,-30.080
-100.000,-30.280
 -99.000,-30.560
 -98.000,-30.930
 -97.000,-31.390
 -96.000,-31.950
 -95.000,-32.600
 -94.000,-33.340
 -93.000,-34.130
 -92.000,-34.900
 -91.000,-35.500
 -90.000,-35.750
 -89.000,-35.470
 -88.000,-34.700
 -87.000,-33.600
 -86.000,-32.360
 -85.000,-31.110
 -84.000,-29.920
 -83.000,-28.810
 -82.000,-27.800
 -81.000,-26.890
 -80.000,-26.060
 -79.000,-25.320
 -78.000,-24.660
 -77.000,-24.070
 -76.000,-23.550
 -75.000,-23.090
 -74.000,-22.700
 -73.000,-22.370
 -72.000,-22.100
 -71.000,-21.880
 -70.000,-21.730
 -69.000,-21.630
 -68.000,-21.600
 -67.000,-21.620
 -66.000,-21.710
 -65.000,-21.860
 -64.000,-22.070
 -63.000,-22.340
 -62.000,-22.660
 -61.000,-23.030
 -60.000,-23.420
 -59.000,-23.790
 -58.000,-24.080
 -57.000,-24.230
 -56.000,-24.130
 -55.000,-23.750
 -54.000,-23.090
 -53.000,-22.200
 -52.000,-21.180
 -51.000,-20.090
 -50.000,-18.990
 -49.000,-17.910
 -48.000,-16.870
 -47.000,-15.880
 -46.000,-14.940
 -45.000,-14.050
 -44.000,-13.200
 -43.000,-12.410
 -42.000,-11.650
 -41.000,-10.940
 -40.000,-10.270
 -39.000, -9.630
 -38.000, -9.020
 -37.000, -8.450
 -36.000, -7.910
 -35.000, -7.390
 -34.000, -6.900
 -33.000, -6.430
 -32.000, -5.990
 -31.000, -5.570
 -30.000, -5.170
 -29.000, -4.790
 -28.000, -4.430
 -27.000, -4.090
 -26.000, -3.760
 -25.000, -3.450
 -24.000, -3.160
 -23.000, -2.890
 -22.000, -2.620
 -21.000, -2.380
 -20.000, -2.140
 -19.000, -1.930
 -18.000, -1.720
 -17.000, -1.530
 -16.000, -1.350
 -15.000, -1.180
 -14.000, -1.030
 -13.000, -0.880
 -12.000, -0.750
 -11.000, -0.630
 -10.000, -0.520
  -9.000, -0.420
  -8.000, -0.330
  -7.000, -0.250
  -6.000, -0.190
  -5.000, -0.130
  -4.000, -0.090
  -3.000, -0.050
  -2.000, -0.020
  -1.000, -0.010
   0.000,  0.000
   1.000, -0.010
   2.000, -0.020
   3.000, -0.050
   4.000, -0.090
   5.000, -0.130
   6.000, -0.190
   7.000, -0.250
   8.000, -0.330
   9.000, -0.420
  10.000, -0.520
  11.000, -0.630
  12.000, -0.750
  13.000, -0.880
  14.000, -1.030
  15.000, -1.180
  16.000, -1.350
  17.000, -1.530
  18.000, -1.720
  19.000, -1.930
  20.000, -2.140
  21.000, -2.380
  22.000, -2.620
  23.000, -2.890
  24.000, -3.160
  25.000, -3.450
  26.000, -3.760
  27.000, -4.090
  28.000, -4.430
  29.000, -4.790
  30.000, -5.170
  31.000, -5.570
  32.000, -5.990
  33.000, -6.430
  34.000, -6.900
  35.000, -7.390
  36.000, -7.910
  37.000, -8.450
  38.000, -9.020
  39.000, -9.630
  40.000,-10.270
  41.000,-10.940
  42.000,-11.650
  43.000,-12.410
  44.000,-13.200
  45.000,-14.050
  46.000,-14.940
  47.000,-15.880
  48.000,-16.870
  49.000,-17.910
  50.000,-18.990
  51.000,-20.090
  52.000,-21.180
  53.000,-22.200
  54.000,-23.090
  55.000,-23.750
  56.000,-24.130
  57.000,-24.230
  58.000,-24.080
  59.000,-23.790
  60.000,-23.420
  61.000,-23.030
  62.000,-22.660
  63.000,-22.340
  64.000,-22.070
  65.000,-21.860
  66.000,-21.710
  67.000,-21.620
  68.000,-21.600
  69.000,-21.630
  70.000,-21.730
  71.000,-21.880
  72.000,-22.100
  73.000,-22.370
  74.000,-22.700
  75.000,-23.090
  76.000,-23.550
  77.000,-24.070
  78.000,-24.660
  79.000,-25.320
  80.000,-26.060
  81.000,-26.890
  82.000,-27.800
  83.000,-28.810
  84.000,-29.910
  85.000,-31.110
  86.000,-32.360
  87.000,-33.600
  88.000,-34.700
  89.000,-35.470
  90.000,-35.740
  91.000,-35.500
  92.000,-34.900
  93.000,-34.130
  94.000,-33.340
  95.000,-32.600
  96.000,-31.950
  97.000,-31.390
  98.000,-30.930
  99.000,-30.560
 100.000,-30.280
 101.000,-30.080
 102.000,-29.960
 103.000,-29.910
 104.000,-29.930
 105.000,-30.020
 106.000,-30.170
 107.000,-30.380
 108.000,-30.650
 109.000,-30.990
 110.000,-31.370
 111.000,-31.820
 112.000,-32.300
 113.000,-32.830
 114.000,-33.370
 115.000,-33.910
 116.000,-34.410
 117.000,-34.830
 118.000,-35.100
 119.000,-35.190
 120.000,-35.060
 121.000,-34.720
 122.000,-34.210
 123.000,-33.580
 124.000,-32.870
 125.000,-32.130
 126.000,-31.390
 127.000,-30.650
 128.000,-29.930
 129.000,-29.230
 130.000,-28.570
 131.000,-27.920
 132.000,-27.310
 133.000,-26.710
 134.000,-26.140
 135.000,-25.590
 136.000,-25.060
 137.000,-24.550
 138.000,-24.060
 139.000,-23.580
 140.000,-23.120
 141.000,-22.670
 142.000,-22.230
 143.000,-21.810
 144.000,-21.410
 145.000,-21.020
 146.000,-20.640
 147.000,-20.270
 148.000,-19.920
 149.000,-19.580
 150.000,-19.250
 151.000,-18.930
 152.000,-18.630
 153.000,-18.340
 154.000,-18.060
 155.000,-17.790
 156.000,-17.540
 157.000,-17.300
 158.000,-17.070
 159.000,-16.850
 160.000,-16.640
 161.000,-16.440
 162.000,-16.260
 163.000,-16.080
 164.000,-15.920
 165.000,-15.770
 166.000,-15.630
 167.000,-15.490
 168.000,-15.370
 169.000,-15.260
 170.000,-15.160
 171.000,-15.070
 172.000,-14.990
 173.000,-14.920
 174.000,-14.860
 175.000,-14.800
 176.000,-14.760
 177.000,-14.730
 178.000,-14.700
 179.000,-14.690
ENDFIL:,EOF
