REVNUM:,NSMA WG16.99.050
REVDAT:,20050520
ANTMAN:,COMPROD
MODNUM:,YAGI 480-70_V     
DESCR1:,CP UHF Series Yagi Antennas
DESCR2:,Vertical polarization
DESCR3:,Max gain @ 0 deg dt
DESCR4:,Directional
DTDATA:,20050101
LOWFRQ:,406.0
HGHFRQ:,470.0
GUNITS:,DBD/DBR
MDGAIN:,9.67
AZWIDT:,50.7
ELWIDT:,43.8
CONTYP:,N
ATVSWR:,1.5
ELTILT:,0.0
MAXPOW:,500
ANTLEN:,0 dimension L
ANTWID:,0 dimension W
ANTDEP:,0 dimension H
ANTWGT:,0 weight in kg
PATTYP:,TYPICAL
NOFREQ:,1
PATFRE:,438.0
NUMCUT:,2
PATCUT:,AZ
POLARI:,V/V
NUPOIN:,360
FSTLST:,-180,179
-180.000,-19.850
-179.000,-19.850
-178.000,-19.850
-177.000,-19.860
-176.000,-19.890
-175.000,-19.920
-174.000,-19.960
-173.000,-20.020
-172.000,-20.080
-171.000,-20.150
-170.000,-20.230
-169.000,-20.320
-168.000,-20.420
-167.000,-20.520
-166.000,-20.640
-165.000,-20.760
-164.000,-20.890
-163.000,-21.030
-162.000,-21.170
-161.000,-21.320
-160.000,-21.470
-159.000,-21.630
-158.000,-21.780
-157.000,-21.930
-156.000,-22.080
-155.000,-22.220
-154.000,-22.350
-153.000,-22.470
-152.000,-22.560
-151.000,-22.640
-150.000,-22.690
-149.000,-22.700
-148.000,-22.690
-147.000,-22.640
-146.000,-22.550
-145.000,-22.430
-144.000,-22.260
-143.000,-22.070
-142.000,-21.840
-141.000,-21.590
-140.000,-21.310
-139.000,-21.010
-138.000,-20.700
-137.000,-20.370
-136.000,-20.040
-135.000,-19.700
-134.000,-19.360
-133.000,-19.020
-132.000,-18.690
-131.000,-18.370
-130.000,-18.050
-129.000,-17.740
-128.000,-17.450
-127.000,-17.170
-126.000,-16.900
-125.000,-16.640
-124.000,-16.410
-123.000,-16.190
-122.000,-15.990
-121.000,-15.810
-120.000,-15.650
-119.000,-15.510
-118.000,-15.390
-117.000,-15.300
-116.000,-15.230
-115.000,-15.190
-114.000,-15.180
-113.000,-15.190
-112.000,-15.240
-111.000,-15.320
-110.000,-15.440
-109.000,-15.600
-108.000,-15.800
-107.000,-16.040
-106.000,-16.340
-105.000,-16.690
-104.000,-17.100
-103.000,-17.570
-102.000,-18.120
-101.000,-18.760
-100.000,-19.480
 -99.000,-20.310
 -98.000,-21.230
 -97.000,-22.250
 -96.000,-23.320
 -95.000,-24.310
 -94.000,-25.040
 -93.000,-25.210
 -92.000,-24.710
 -91.000,-23.700
 -90.000,-22.430
 -89.000,-21.110
 -88.000,-19.860
 -87.000,-18.690
 -86.000,-17.630
 -85.000,-16.670
 -84.000,-15.800
 -83.000,-15.020
 -82.000,-14.320
 -81.000,-13.680
 -80.000,-13.110
 -79.000,-12.600
 -78.000,-12.140
 -77.000,-11.730
 -76.000,-11.370
 -75.000,-11.060
 -74.000,-10.790
 -73.000,-10.560
 -72.000,-10.370
 -71.000,-10.220
 -70.000,-10.110
 -69.000,-10.040
 -68.000,-10.000
 -67.000,-10.000
 -66.000,-10.040
 -65.000,-10.110
 -64.000,-10.230
 -63.000,-10.370
 -62.000,-10.560
 -61.000,-10.780
 -60.000,-11.030
 -59.000,-11.320
 -58.000,-11.640
 -57.000,-11.990
 -56.000,-12.360
 -55.000,-12.730
 -54.000,-13.100
 -53.000,-13.450
 -52.000,-13.740
 -51.000,-13.950
 -50.000,-14.050
 -49.000,-14.010
 -48.000,-13.840
 -47.000,-13.520
 -46.000,-13.090
 -45.000,-12.560
 -44.000,-11.980
 -43.000,-11.360
 -42.000,-10.720
 -41.000,-10.090
 -40.000, -9.470
 -39.000, -8.870
 -38.000, -8.290
 -37.000, -7.740
 -36.000, -7.210
 -35.000, -6.710
 -34.000, -6.240
 -33.000, -5.790
 -32.000, -5.370
 -31.000, -4.970
 -30.000, -4.590
 -29.000, -4.240
 -28.000, -3.900
 -27.000, -3.590
 -26.000, -3.290
 -25.000, -3.010
 -24.000, -2.750
 -23.000, -2.500
 -22.000, -2.270
 -21.000, -2.050
 -20.000, -1.840
 -19.000, -1.650
 -18.000, -1.470
 -17.000, -1.310
 -16.000, -1.150
 -15.000, -1.010
 -14.000, -0.880
 -13.000, -0.760
 -12.000, -0.640
 -11.000, -0.540
 -10.000, -0.450
  -9.000, -0.370
  -8.000, -0.290
  -7.000, -0.230
  -6.000, -0.170
  -5.000, -0.120
  -4.000, -0.080
  -3.000, -0.050
  -2.000, -0.030
  -1.000, -0.010
   0.000,  0.000
   1.000, -0.010
   2.000, -0.010
   3.000, -0.030
   4.000, -0.060
   5.000, -0.090
   6.000, -0.130
   7.000, -0.180
   8.000, -0.240
   9.000, -0.310
  10.000, -0.390
  11.000, -0.470
  12.000, -0.570
  13.000, -0.670
  14.000, -0.790
  15.000, -0.910
  16.000, -1.050
  17.000, -1.200
  18.000, -1.350
  19.000, -1.520
  20.000, -1.710
  21.000, -1.900
  22.000, -2.110
  23.000, -2.330
  24.000, -2.570
  25.000, -2.820
  26.000, -3.090
  27.000, -3.380
  28.000, -3.690
  29.000, -4.010
  30.000, -4.360
  31.000, -4.720
  32.000, -5.110
  33.000, -5.520
  34.000, -5.960
  35.000, -6.430
  36.000, -6.920
  37.000, -7.440
  38.000, -7.990
  39.000, -8.580
  40.000, -9.190
  41.000, -9.840
  42.000,-10.510
  43.000,-11.210
  44.000,-11.920
  45.000,-12.630
  46.000,-13.310
  47.000,-13.930
  48.000,-14.470
  49.000,-14.870
  50.000,-15.100
  51.000,-15.150
  52.000,-15.040
  53.000,-14.790
  54.000,-14.440
  55.000,-14.030
  56.000,-13.590
  57.000,-13.150
  58.000,-12.730
  59.000,-12.330
  60.000,-11.970
  61.000,-11.640
  62.000,-11.350
  63.000,-11.110
  64.000,-10.900
  65.000,-10.730
  66.000,-10.600
  67.000,-10.510
  68.000,-10.460
  69.000,-10.440
  70.000,-10.470
  71.000,-10.530
  72.000,-10.630
  73.000,-10.760
  74.000,-10.940
  75.000,-11.160
  76.000,-11.420
  77.000,-11.720
  78.000,-12.060
  79.000,-12.450
  80.000,-12.890
  81.000,-13.380
  82.000,-13.930
  83.000,-14.550
  84.000,-15.230
  85.000,-15.980
  86.000,-16.820
  87.000,-17.760
  88.000,-18.810
  89.000,-19.990
  90.000,-21.310
  91.000,-22.800
  92.000,-24.430
  93.000,-26.140
  94.000,-27.660
  95.000,-28.460
  96.000,-28.160
  97.000,-27.040
  98.000,-25.630
  99.000,-24.250
 100.000,-23.020
 101.000,-21.950
 102.000,-21.030
 103.000,-20.230
 104.000,-19.550
 105.000,-18.960
 106.000,-18.460
 107.000,-18.020
 108.000,-17.660
 109.000,-17.350
 110.000,-17.090
 111.000,-16.870
 112.000,-16.700
 113.000,-16.570
 114.000,-16.470
 115.000,-16.410
 116.000,-16.380
 117.000,-16.370
 118.000,-16.400
 119.000,-16.440
 120.000,-16.520
 121.000,-16.610
 122.000,-16.730
 123.000,-16.860
 124.000,-17.020
 125.000,-17.190
 126.000,-17.380
 127.000,-17.590
 128.000,-17.810
 129.000,-18.050
 130.000,-18.300
 131.000,-18.560
 132.000,-18.840
 133.000,-19.130
 134.000,-19.420
 135.000,-19.720
 136.000,-20.030
 137.000,-20.350
 138.000,-20.660
 139.000,-20.970
 140.000,-21.280
 141.000,-21.570
 142.000,-21.850
 143.000,-22.120
 144.000,-22.360
 145.000,-22.570
 146.000,-22.750
 147.000,-22.900
 148.000,-23.010
 149.000,-23.080
 150.000,-23.110
 151.000,-23.100
 152.000,-23.070
 153.000,-22.990
 154.000,-22.900
 155.000,-22.770
 156.000,-22.630
 157.000,-22.480
 158.000,-22.320
 159.000,-22.150
 160.000,-21.970
 161.000,-21.800
 162.000,-21.620
 163.000,-21.450
 164.000,-21.290
 165.000,-21.130
 166.000,-20.980
 167.000,-20.840
 168.000,-20.700
 169.000,-20.580
 170.000,-20.460
 171.000,-20.360
 172.000,-20.260
 173.000,-20.170
 174.000,-20.100
 175.000,-20.030
 176.000,-19.980
 177.000,-19.930
 178.000,-19.890
 179.000,-19.870
PATCUT:,EL
POLARI:,V/V
NUPOIN:,360
FSTLST:,-180,179
-180.000,-19.850
-179.000,-19.860
-178.000,-19.880
-177.000,-19.920
-176.000,-19.970
-175.000,-20.030
-174.000,-20.110
-173.000,-20.200
-172.000,-20.310
-171.000,-20.430
-170.000,-20.570
-169.000,-20.720
-168.000,-20.880
-167.000,-21.060
-166.000,-21.250
-165.000,-21.460
-164.000,-21.670
-163.000,-21.900
-162.000,-22.150
-161.000,-22.400
-160.000,-22.660
-159.000,-22.930
-158.000,-23.200
-157.000,-23.480
-156.000,-23.760
-155.000,-24.030
-154.000,-24.300
-153.000,-24.550
-152.000,-24.790
-151.000,-25.000
-150.000,-25.190
-149.000,-25.340
-148.000,-25.470
-147.000,-25.550
-146.000,-25.590
-145.000,-25.600
-144.000,-25.560
-143.000,-25.500
-142.000,-25.400
-141.000,-25.280
-140.000,-25.140
-139.000,-24.980
-138.000,-24.820
-137.000,-24.650
-136.000,-24.480
-135.000,-24.320
-134.000,-24.160
-133.000,-24.020
-132.000,-23.880
-131.000,-23.760
-130.000,-23.660
-129.000,-23.580
-128.000,-23.510
-127.000,-23.470
-126.000,-23.450
-125.000,-23.450
-124.000,-23.480
-123.000,-23.530
-122.000,-23.620
-121.000,-23.730
-120.000,-23.870
-119.000,-24.050
-118.000,-24.260
-117.000,-24.510
-116.000,-24.790
-115.000,-25.120
-114.000,-25.490
-113.000,-25.910
-112.000,-26.380
-111.000,-26.910
-110.000,-27.490
-109.000,-28.150
-108.000,-28.870
-107.000,-29.680
-106.000,-30.570
-105.000,-31.570
-104.000,-32.680
-103.000,-33.930
-102.000,-35.340
-101.000,-36.940
-100.000,-38.780
 -99.000,-40.910
 -98.000,-43.420
 -97.000,-46.450
 -96.000,-50.180
 -95.000,-54.770
 -94.000,-59.420
 -93.000,-60.950
 -92.000,-61.090
 -91.000,-64.060
 -90.000,-61.855
 -89.000,-59.650
 -88.000,-51.990
 -87.000,-47.080
 -86.000,-43.390
 -85.000,-40.400
 -84.000,-37.900
 -83.000,-35.740
 -82.000,-33.850
 -81.000,-32.180
 -80.000,-30.680
 -79.000,-29.340
 -78.000,-28.120
 -77.000,-27.020
 -76.000,-26.020
 -75.000,-25.110
 -74.000,-24.280
 -73.000,-23.530
 -72.000,-22.840
 -71.000,-22.230
 -70.000,-21.680
 -69.000,-21.190
 -68.000,-20.750
 -67.000,-20.370
 -66.000,-20.040
 -65.000,-19.760
 -64.000,-19.540
 -63.000,-19.360
 -62.000,-19.220
 -61.000,-19.130
 -60.000,-19.080
 -59.000,-19.070
 -58.000,-19.090
 -57.000,-19.130
 -56.000,-19.180
 -55.000,-19.230
 -54.000,-19.250
 -53.000,-19.230
 -52.000,-19.140
 -51.000,-18.960
 -50.000,-18.670
 -49.000,-18.260
 -48.000,-17.750
 -47.000,-17.130
 -46.000,-16.450
 -45.000,-15.720
 -44.000,-14.960
 -43.000,-14.180
 -42.000,-13.410
 -41.000,-12.660
 -40.000,-11.920
 -39.000,-11.210
 -38.000,-10.520
 -37.000, -9.860
 -36.000, -9.230
 -35.000, -8.630
 -34.000, -8.060
 -33.000, -7.510
 -32.000, -6.990
 -31.000, -6.490
 -30.000, -6.020
 -29.000, -5.580
 -28.000, -5.150
 -27.000, -4.750
 -26.000, -4.370
 -25.000, -4.010
 -24.000, -3.660
 -23.000, -3.340
 -22.000, -3.040
 -21.000, -2.750
 -20.000, -2.480
 -19.000, -2.220
 -18.000, -1.980
 -17.000, -1.760
 -16.000, -1.550
 -15.000, -1.360
 -14.000, -1.180
 -13.000, -1.010
 -12.000, -0.860
 -11.000, -0.720
 -10.000, -0.600
  -9.000, -0.480
  -8.000, -0.380
  -7.000, -0.290
  -6.000, -0.220
  -5.000, -0.150
  -4.000, -0.100
  -3.000, -0.060
  -2.000, -0.030
  -1.000, -0.010
   0.000,  0.000
   1.000, -0.010
   2.000, -0.030
   3.000, -0.060
   4.000, -0.100
   5.000, -0.150
   6.000, -0.220
   7.000, -0.290
   8.000, -0.380
   9.000, -0.480
  10.000, -0.600
  11.000, -0.720
  12.000, -0.860
  13.000, -1.010
  14.000, -1.180
  15.000, -1.360
  16.000, -1.550
  17.000, -1.760
  18.000, -1.980
  19.000, -2.220
  20.000, -2.480
  21.000, -2.750
  22.000, -3.040
  23.000, -3.340
  24.000, -3.660
  25.000, -4.010
  26.000, -4.370
  27.000, -4.750
  28.000, -5.150
  29.000, -5.580
  30.000, -6.020
  31.000, -6.490
  32.000, -6.990
  33.000, -7.510
  34.000, -8.060
  35.000, -8.630
  36.000, -9.230
  37.000, -9.860
  38.000,-10.520
  39.000,-11.210
  40.000,-11.920
  41.000,-12.660
  42.000,-13.410
  43.000,-14.180
  44.000,-14.960
  45.000,-15.720
  46.000,-16.450
  47.000,-17.130
  48.000,-17.750
  49.000,-18.260
  50.000,-18.670
  51.000,-18.960
  52.000,-19.140
  53.000,-19.230
  54.000,-19.250
  55.000,-19.230
  56.000,-19.180
  57.000,-19.130
  58.000,-19.090
  59.000,-19.070
  60.000,-19.080
  61.000,-19.130
  62.000,-19.220
  63.000,-19.360
  64.000,-19.540
  65.000,-19.760
  66.000,-20.040
  67.000,-20.370
  68.000,-20.750
  69.000,-21.190
  70.000,-21.680
  71.000,-22.230
  72.000,-22.840
  73.000,-23.530
  74.000,-24.280
  75.000,-25.110
  76.000,-26.020
  77.000,-27.020
  78.000,-28.120
  79.000,-29.340
  80.000,-30.680
  81.000,-32.180
  82.000,-33.850
  83.000,-35.740
  84.000,-37.900
  85.000,-40.400
  86.000,-43.390
  87.000,-47.080
  88.000,-51.990
  89.000,-59.650
  90.000,-61.855
  91.000,-64.060
  92.000,-61.090
  93.000,-60.950
  94.000,-59.420
  95.000,-54.770
  96.000,-50.180
  97.000,-46.450
  98.000,-43.420
  99.000,-40.910
 100.000,-38.780
 101.000,-36.940
 102.000,-35.340
 103.000,-33.930
 104.000,-32.680
 105.000,-31.570
 106.000,-30.570
 107.000,-29.680
 108.000,-28.870
 109.000,-28.150
 110.000,-27.490
 111.000,-26.910
 112.000,-26.380
 113.000,-25.910
 114.000,-25.490
 115.000,-25.120
 116.000,-24.790
 117.000,-24.510
 118.000,-24.260
 119.000,-24.050
 120.000,-23.870
 121.000,-23.730
 122.000,-23.620
 123.000,-23.530
 124.000,-23.480
 125.000,-23.450
 126.000,-23.450
 127.000,-23.470
 128.000,-23.510
 129.000,-23.580
 130.000,-23.660
 131.000,-23.760
 132.000,-23.880
 133.000,-24.020
 134.000,-24.160
 135.000,-24.320
 136.000,-24.480
 137.000,-24.650
 138.000,-24.820
 139.000,-24.980
 140.000,-25.140
 141.000,-25.280
 142.000,-25.400
 143.000,-25.500
 144.000,-25.560
 145.000,-25.600
 146.000,-25.590
 147.000,-25.550
 148.000,-25.470
 149.000,-25.340
 150.000,-25.190
 151.000,-25.000
 152.000,-24.790
 153.000,-24.550
 154.000,-24.300
 155.000,-24.030
 156.000,-23.760
 157.000,-23.480
 158.000,-23.200
 159.000,-22.930
 160.000,-22.660
 161.000,-22.400
 162.000,-22.150
 163.000,-21.900
 164.000,-21.670
 165.000,-21.460
 166.000,-21.250
 167.000,-21.060
 168.000,-20.880
 169.000,-20.720
 170.000,-20.570
 171.000,-20.430
 172.000,-20.310
 173.000,-20.200
 174.000,-20.110
 175.000,-20.030
 176.000,-19.970
 177.000,-19.920
 178.000,-19.880
 179.000,-19.860
ENDFIL:,EOF
