REVNUM:,NSMA WG16.99.050
REVDAT:,19990520
ANTMAN:,KATHREIN
MODNUM:,741316
DESCR1:,Panel
DESCR2:,10.85 dBd - X-polarization
DESCR3:,65 degree
DTDATA:,19990121
LOWFRQ:,1710
HGHFRQ:,1880
GUNITS:,DBD/DBR
MDGAIN:,10.9
AZWIDT:,65.0
ELWIDT:,19.0
ELTILT:,0.0
ANTLEN:,0.66
ANTWID:,0.26
ANTDEP:,0.12
ANTWGT:,7.0
PATTYP:,TYPICAL
NOFREQ:,1
PATFRE:,1785.0
NUMCUT:,2
PATCUT:,AZ
POLARI:,V/V
NUPOIN:,360
FSTLST:,-180,179
-180.000,-41.870,
-179.000,-43.550,
-178.000,-45.380,
-177.000,-47.910,
-176.000,-50.670,
-175.000,-53.270,
-174.000,-53.430,
-173.000,-50.730,
-172.000,-48.380,
-171.000,-45.970,
-170.000,-44.240,
-169.000,-42.830,
-168.000,-41.680,
-167.000,-40.720,
-166.000,-39.910,
-165.000,-39.370,
-164.000,-38.920,
-163.000,-38.520,
-162.000,-38.230,
-161.000,-38.090,
-160.000,-38.030,
-159.000,-38.080,
-158.000,-38.140,
-157.000,-38.350,
-156.000,-38.670,
-155.000,-39.130,
-154.000,-39.700,
-153.000,-40.360,
-152.000,-41.120,
-151.000,-42.100,
-150.000,-43.360,
-149.000,-44.880,
-148.000,-46.840,
-147.000,-48.890,
-146.000,-50.850,
-145.000,-51.470,
-144.000,-49.530,
-143.000,-47.110,
-142.000,-44.800,
-141.000,-42.960,
-140.000,-41.130,
-139.000,-39.730,
-138.000,-38.610,
-137.000,-37.530,
-136.000,-36.560,
-135.000,-35.810,
-134.000,-35.100,
-133.000,-34.450,
-132.000,-33.890,
-131.000,-33.390,
-130.000,-32.990,
-129.000,-32.620,
-128.000,-32.280,
-127.000,-31.990,
-126.000,-31.770,
-125.000,-31.540,
-124.000,-31.410,
-123.000,-31.250,
-122.000,-31.160,
-121.000,-31.050,
-120.000,-30.950,
-119.000,-30.830,
-118.000,-30.710,
-117.000,-30.580,
-116.000,-30.380,
-115.000,-30.160,
-114.000,-29.910,
-113.000,-29.620,
-112.000,-29.250,
-111.000,-28.880,
-110.000,-28.470,
-109.000,-28.020,
-108.000,-27.570,
-107.000,-27.120,
-106.000,-26.640,
-105.000,-26.150,
-104.000,-25.720,
-103.000,-25.230,
-102.000,-24.820,
-101.000,-24.330,
-100.000,-23.950,
-99.000,-23.550,
-98.000,-23.150,
-97.000,-22.760,
-96.000,-22.330,
-95.000,-21.970,
-94.000,-21.590,
-93.000,-21.240,
-92.000,-20.900,
-91.000,-20.560,
-90.000,-20.210,
-89.000,-19.830,
-88.000,-19.450,
-87.000,-19.110,
-86.000,-18.730,
-85.000,-18.360,
-84.000,-17.980,
-83.000,-17.600,
-82.000,-17.230,
-81.000,-16.870,
-80.000,-16.450,
-79.000,-16.080,
-78.000,-15.700,
-77.000,-15.310,
-76.000,-14.930,
-75.000,-14.560,
-74.000,-14.140,
-73.000,-13.790,
-72.000,-13.410,
-71.000,-13.020,
-70.000,-12.680,
-69.000,-12.320,
-68.000,-11.950,
-67.000,-11.630,
-66.000,-11.260,
-65.000,-10.930,
-64.000,-10.600,
-63.000,-10.280,
-62.000,-9.960,
-61.000,-9.650,
-60.000,-9.350,
-59.000,-9.040,
-58.000,-8.780,
-57.000,-8.480,
-56.000,-8.170,
-55.000,-7.880,
-54.000,-7.590,
-53.000,-7.320,
-52.000,-7.040,
-51.000,-6.790,
-50.000,-6.520,
-49.000,-6.260,
-48.000,-6.000,
-47.000,-5.760,
-46.000,-5.530,
-45.000,-5.270,
-44.000,-5.050,
-43.000,-4.820,
-42.000,-4.620,
-41.000,-4.390,
-40.000,-4.190,
-39.000,-3.970,
-38.000,-3.770,
-37.000,-3.570,
-36.000,-3.380,
-35.000,-3.190,
-34.000,-3.000,
-33.000,-2.840,
-32.000,-2.640,
-31.000,-2.490,
-30.000,-2.320,
-29.000,-2.160,
-28.000,-1.990,
-27.000,-1.860,
-26.000,-1.730,
-25.000,-1.600,
-24.000,-1.440,
-23.000,-1.310,
-22.000,-1.200,
-21.000,-1.090,
-20.000,-0.980,
-19.000,-0.870,
-18.000,-0.790,
-17.000,-0.690,
-16.000,-0.620,
-15.000,-0.540,
-14.000,-0.470,
-13.000,-0.410,
-12.000,-0.350,
-11.000,-0.290,
-10.000,-0.250,
-9.000,-0.200,
-8.000,-0.160,
-7.000,-0.140,
-6.000,-0.110,
-5.000,-0.060,
-4.000,-0.050,
-3.000,-0.020,
-2.000,-0.010,
-1.000,0.000,
0.000,0.000,
1.000,-0.010,
2.000,-0.020,
3.000,-0.040,
4.000,-0.060,
5.000,-0.080,
6.000,-0.130,
7.000,-0.150,
8.000,-0.180,
9.000,-0.230,
10.000,-0.280,
11.000,-0.320,
12.000,-0.400,
13.000,-0.450,
14.000,-0.530,
15.000,-0.600,
16.000,-0.680,
17.000,-0.760,
18.000,-0.850,
19.000,-0.950,
20.000,-1.050,
21.000,-1.160,
22.000,-1.250,
23.000,-1.390,
24.000,-1.520,
25.000,-1.640,
26.000,-1.780,
27.000,-1.920,
28.000,-2.030,
29.000,-2.200,
30.000,-2.350,
31.000,-2.510,
32.000,-2.680,
33.000,-2.850,
34.000,-3.010,
35.000,-3.200,
36.000,-3.370,
37.000,-3.570,
38.000,-3.750,
39.000,-3.950,
40.000,-4.180,
41.000,-4.360,
42.000,-4.580,
43.000,-4.800,
44.000,-5.010,
45.000,-5.250,
46.000,-5.500,
47.000,-5.710,
48.000,-5.960,
49.000,-6.200,
50.000,-6.450,
51.000,-6.690,
52.000,-6.960,
53.000,-7.190,
54.000,-7.470,
55.000,-7.720,
56.000,-8.010,
57.000,-8.290,
58.000,-8.550,
59.000,-8.830,
60.000,-9.130,
61.000,-9.390,
62.000,-9.680,
63.000,-9.970,
64.000,-10.270,
65.000,-10.550,
66.000,-10.820,
67.000,-11.100,
68.000,-11.400,
69.000,-11.710,
70.000,-12.000,
71.000,-12.310,
72.000,-12.600,
73.000,-12.890,
74.000,-13.200,
75.000,-13.500,
76.000,-13.820,
77.000,-14.120,
78.000,-14.430,
79.000,-14.740,
80.000,-15.070,
81.000,-15.380,
82.000,-15.680,
83.000,-16.020,
84.000,-16.360,
85.000,-16.690,
86.000,-17.030,
87.000,-17.350,
88.000,-17.690,
89.000,-18.050,
90.000,-18.380,
91.000,-18.730,
92.000,-19.070,
93.000,-19.400,
94.000,-19.740,
95.000,-20.070,
96.000,-20.400,
97.000,-20.730,
98.000,-21.060,
99.000,-21.380,
100.000,-21.690,
101.000,-21.970,
102.000,-22.270,
103.000,-22.520,
104.000,-22.790,
105.000,-23.050,
106.000,-23.310,
107.000,-23.540,
108.000,-23.780,
109.000,-24.010,
110.000,-24.240,
111.000,-24.460,
112.000,-24.720,
113.000,-24.930,
114.000,-25.170,
115.000,-25.460,
116.000,-25.720,
117.000,-26.010,
118.000,-26.330,
119.000,-26.650,
120.000,-26.990,
121.000,-27.400,
122.000,-27.790,
123.000,-28.240,
124.000,-28.730,
125.000,-29.260,
126.000,-29.850,
127.000,-30.490,
128.000,-31.200,
129.000,-31.960,
130.000,-32.890,
131.000,-33.770,
132.000,-34.850,
133.000,-35.990,
134.000,-37.140,
135.000,-38.510,
136.000,-39.960,
137.000,-41.200,
138.000,-42.140,
139.000,-42.730,
140.000,-42.530,
141.000,-41.310,
142.000,-40.220,
143.000,-39.200,
144.000,-38.210,
145.000,-37.390,
146.000,-36.550,
147.000,-35.890,
148.000,-35.340,
149.000,-34.740,
150.000,-34.320,
151.000,-33.980,
152.000,-33.630,
153.000,-33.450,
154.000,-33.190,
155.000,-33.000,
156.000,-32.910,
157.000,-32.780,
158.000,-32.740,
159.000,-32.700,
160.000,-32.750,
161.000,-32.790,
162.000,-32.850,
163.000,-32.960,
164.000,-33.100,
165.000,-33.220,
166.000,-33.420,
167.000,-33.660,
168.000,-33.850,
169.000,-34.170,
170.000,-34.490,
171.000,-34.870,
172.000,-35.300,
173.000,-35.780,
174.000,-36.370,
175.000,-36.960,
176.000,-37.660,
177.000,-38.510,
178.000,-39.400,
179.000,-40.520,
PATCUT:,EL
POLARI:,V/V
NUPOIN:,360
FSTLST:,-180,179
-180.000,-46.960,
-179.000,-46.970,
-178.000,-45.390,
-177.000,-42.870,
-176.000,-40.240,
-175.000,-38.210,
-174.000,-36.700,
-173.000,-35.580,
-172.000,-34.900,
-171.000,-34.600,
-170.000,-34.830,
-169.000,-35.590,
-168.000,-37.130,
-167.000,-39.730,
-166.000,-44.530,
-165.000,-51.200,
-164.000,-43.810,
-163.000,-38.290,
-162.000,-35.010,
-161.000,-32.640,
-160.000,-31.020,
-159.000,-29.820,
-158.000,-29.160,
-157.000,-28.830,
-156.000,-28.660,
-155.000,-28.820,
-154.000,-29.330,
-153.000,-30.100,
-152.000,-31.130,
-151.000,-32.480,
-150.000,-34.280,
-149.000,-36.380,
-148.000,-39.370,
-147.000,-43.070,
-146.000,-48.150,
-145.000,-52.200,
-144.000,-48.810,
-143.000,-45.880,
-142.000,-44.170,
-141.000,-43.190,
-140.000,-42.520,
-139.000,-42.400,
-138.000,-42.510,
-137.000,-42.930,
-136.000,-43.230,
-135.000,-43.920,
-134.000,-44.610,
-133.000,-45.110,
-132.000,-45.450,
-131.000,-45.520,
-130.000,-44.960,
-129.000,-44.650,
-128.000,-43.710,
-127.000,-43.150,
-126.000,-42.020,
-125.000,-40.970,
-124.000,-39.870,
-123.000,-38.860,
-122.000,-37.560,
-121.000,-36.330,
-120.000,-35.140,
-119.000,-33.860,
-118.000,-32.580,
-117.000,-31.450,
-116.000,-30.350,
-115.000,-29.360,
-114.000,-28.440,
-113.000,-27.620,
-112.000,-26.910,
-111.000,-26.280,
-110.000,-25.680,
-109.000,-25.190,
-108.000,-24.750,
-107.000,-24.390,
-106.000,-24.100,
-105.000,-23.820,
-104.000,-23.620,
-103.000,-23.460,
-102.000,-23.330,
-101.000,-23.220,
-100.000,-23.160,
-99.000,-23.130,
-98.000,-23.120,
-97.000,-23.100,
-96.000,-23.130,
-95.000,-23.150,
-94.000,-23.180,
-93.000,-23.190,
-92.000,-23.240,
-91.000,-23.240,
-90.000,-23.210,
-89.000,-23.180,
-88.000,-23.150,
-87.000,-23.040,
-86.000,-22.910,
-85.000,-22.760,
-84.000,-22.550,
-83.000,-22.300,
-82.000,-22.000,
-81.000,-21.710,
-80.000,-21.360,
-79.000,-20.970,
-78.000,-20.570,
-77.000,-20.160,
-76.000,-19.750,
-75.000,-19.340,
-74.000,-18.890,
-73.000,-18.490,
-72.000,-18.060,
-71.000,-17.680,
-70.000,-17.270,
-69.000,-16.920,
-68.000,-16.590,
-67.000,-16.280,
-66.000,-16.010,
-65.000,-15.780,
-64.000,-15.580,
-63.000,-15.450,
-62.000,-15.340,
-61.000,-15.280,
-60.000,-15.280,
-59.000,-15.310,
-58.000,-15.410,
-57.000,-15.550,
-56.000,-15.780,
-55.000,-16.060,
-54.000,-16.430,
-53.000,-16.900,
-52.000,-17.450,
-51.000,-18.080,
-50.000,-18.840,
-49.000,-19.690,
-48.000,-20.620,
-47.000,-21.460,
-46.000,-22.080,
-45.000,-22.140,
-44.000,-21.560,
-43.000,-20.520,
-42.000,-19.190,
-41.000,-17.850,
-40.000,-16.580,
-39.000,-15.420,
-38.000,-14.440,
-37.000,-13.540,
-36.000,-12.820,
-35.000,-12.210,
-34.000,-11.740,
-33.000,-11.370,
-32.000,-11.160,
-31.000,-11.060,
-30.000,-11.110,
-29.000,-11.300,
-28.000,-11.650,
-27.000,-12.140,
-26.000,-12.870,
-25.000,-13.760,
-24.000,-14.820,
-23.000,-16.020,
-22.000,-17.000,
-21.000,-17.330,
-20.000,-16.500,
-19.000,-14.960,
-18.000,-13.100,
-17.000,-11.310,
-16.000,-9.700,
-15.000,-8.350,
-14.000,-7.060,
-13.000,-5.950,
-12.000,-4.990,
-11.000,-4.110,
-10.000,-3.350,
-9.000,-2.660,
-8.000,-2.080,
-7.000,-1.620,
-6.000,-1.150,
-5.000,-0.780,
-4.000,-0.520,
-3.000,-0.280,
-2.000,-0.140,
-1.000,-0.030,
0.000,0.000,
1.000,-0.030,
2.000,-0.140,
3.000,-0.300,
4.000,-0.530,
5.000,-0.840,
6.000,-1.200,
7.000,-1.640,
8.000,-2.170,
9.000,-2.760,
10.000,-3.450,
11.000,-4.220,
12.000,-5.150,
13.000,-6.180,
14.000,-7.260,
15.000,-8.530,
16.000,-9.930,
17.000,-11.340,
18.000,-12.920,
19.000,-14.420,
20.000,-15.720,
21.000,-16.520,
22.000,-16.710,
23.000,-16.420,
24.000,-15.930,
25.000,-15.410,
26.000,-14.980,
27.000,-14.660,
28.000,-14.510,
29.000,-14.480,
30.000,-14.620,
31.000,-14.870,
32.000,-15.250,
33.000,-15.780,
34.000,-16.370,
35.000,-17.100,
36.000,-17.850,
37.000,-18.620,
38.000,-19.310,
39.000,-19.840,
40.000,-20.130,
41.000,-20.110,
42.000,-19.810,
43.000,-19.350,
44.000,-18.740,
45.000,-18.120,
46.000,-17.510,
47.000,-16.940,
48.000,-16.450,
49.000,-16.020,
50.000,-15.610,
51.000,-15.270,
52.000,-15.000,
53.000,-14.770,
54.000,-14.570,
55.000,-14.440,
56.000,-14.320,
57.000,-14.230,
58.000,-14.190,
59.000,-14.190,
60.000,-14.220,
61.000,-14.290,
62.000,-14.390,
63.000,-14.480,
64.000,-14.660,
65.000,-14.810,
66.000,-14.990,
67.000,-15.180,
68.000,-15.380,
69.000,-15.610,
70.000,-15.840,
71.000,-16.080,
72.000,-16.320,
73.000,-16.550,
74.000,-16.820,
75.000,-17.040,
76.000,-17.270,
77.000,-17.470,
78.000,-17.660,
79.000,-17.830,
80.000,-17.980,
81.000,-18.100,
82.000,-18.190,
83.000,-18.300,
84.000,-18.380,
85.000,-18.460,
86.000,-18.540,
87.000,-18.620,
88.000,-18.720,
89.000,-18.830,
90.000,-18.990,
91.000,-19.140,
92.000,-19.360,
93.000,-19.590,
94.000,-19.870,
95.000,-20.240,
96.000,-20.650,
97.000,-21.120,
98.000,-21.620,
99.000,-22.230,
100.000,-22.910,
101.000,-23.630,
102.000,-24.450,
103.000,-25.290,
104.000,-26.130,
105.000,-27.010,
106.000,-27.840,
107.000,-28.430,
108.000,-28.820,
109.000,-28.880,
110.000,-28.620,
111.000,-28.250,
112.000,-27.790,
113.000,-27.280,
114.000,-26.870,
115.000,-26.420,
116.000,-26.080,
117.000,-25.850,
118.000,-25.660,
119.000,-25.550,
120.000,-25.450,
121.000,-25.460,
122.000,-25.520,
123.000,-25.610,
124.000,-25.720,
125.000,-25.900,
126.000,-26.090,
127.000,-26.360,
128.000,-26.660,
129.000,-27.010,
130.000,-27.410,
131.000,-27.820,
132.000,-28.260,
133.000,-28.720,
134.000,-29.160,
135.000,-29.620,
136.000,-30.000,
137.000,-30.400,
138.000,-30.740,
139.000,-31.030,
140.000,-31.420,
141.000,-31.920,
142.000,-32.440,
143.000,-33.010,
144.000,-33.790,
145.000,-34.250,
146.000,-34.580,
147.000,-34.450,
148.000,-34.020,
149.000,-33.300,
150.000,-32.540,
151.000,-31.850,
152.000,-31.330,
153.000,-31.010,
154.000,-30.890,
155.000,-30.900,
156.000,-31.140,
157.000,-31.620,
158.000,-32.220,
159.000,-32.990,
160.000,-33.900,
161.000,-34.930,
162.000,-36.010,
163.000,-37.070,
164.000,-38.230,
165.000,-39.320,
166.000,-40.680,
167.000,-42.150,
168.000,-43.960,
169.000,-46.670,
170.000,-50.340,
171.000,-56.460,
172.000,-69.080,
173.000,-55.210,
174.000,-50.610,
175.000,-48.120,
176.000,-46.330,
177.000,-45.660,
178.000,-45.830,
179.000,-46.210,
ENDFIL:,EOF
