REVNUM:,NSMA WG16.99.050
REVDAT:,19990520
ANTMAN:,KATHREIN
MODNUM:,742192
DESCR1:,Log
DESCR2:,9.15 dBd - Vertical polarization
DESCR3:,55 degree
DTDATA:,20010209
LOWFRQ:,806
HGHFRQ:,2170
GUNITS:,DBD/DBR
MDGAIN:,9.1
AZWIDT:,55.0
ELWIDT:,50.0
ELTILT:,0.0
ANTLEN:,0.30
ANTWID:,0.15
ANTDEP:,0.78
ANTWGT:,5.7
PATTYP:,TYPICAL
NOFREQ:,1
PATFRE:,1200.0
NUMCUT:,2
PATCUT:,AZ
POLARI:,V/V
NUPOIN:,360
FSTLST:,-180,179
-180.000,-36.100,
-179.000,-35.900,
-178.000,-35.700,
-177.000,-35.600,
-176.000,-35.600,
-175.000,-35.700,
-174.000,-35.800,
-173.000,-35.900,
-172.000,-36.100,
-171.000,-36.300,
-170.000,-36.500,
-169.000,-36.700,
-168.000,-37.000,
-167.000,-37.300,
-166.000,-37.700,
-165.000,-38.200,
-164.000,-38.900,
-163.000,-39.800,
-162.000,-41.000,
-161.000,-42.600,
-160.000,-44.700,
-159.000,-47.400,
-158.000,-50.000,
-157.000,-49.900,
-156.000,-47.100,
-155.000,-44.300,
-154.000,-42.100,
-153.000,-40.400,
-152.000,-39.000,
-151.000,-37.900,
-150.000,-37.000,
-149.000,-36.400,
-148.000,-35.900,
-147.000,-35.500,
-146.000,-35.300,
-145.000,-35.200,
-144.000,-35.300,
-143.000,-35.500,
-142.000,-36.000,
-141.000,-36.700,
-140.000,-37.700,
-139.000,-39.200,
-138.000,-41.100,
-137.000,-44.000,
-136.000,-48.500,
-135.000,-57.600,
-134.000,-54.700,
-133.000,-47.500,
-132.000,-43.800,
-131.000,-41.500,
-130.000,-39.800,
-129.000,-38.600,
-128.000,-37.800,
-127.000,-37.200,
-126.000,-36.800,
-125.000,-36.500,
-124.000,-36.400,
-123.000,-36.400,
-122.000,-36.600,
-121.000,-36.900,
-120.000,-37.600,
-119.000,-38.400,
-118.000,-39.500,
-117.000,-40.700,
-116.000,-41.700,
-115.000,-41.700,
-114.000,-40.400,
-113.000,-38.700,
-112.000,-37.000,
-111.000,-35.400,
-110.000,-34.200,
-109.000,-33.200,
-108.000,-32.400,
-107.000,-31.800,
-106.000,-31.500,
-105.000,-31.300,
-104.000,-31.200,
-103.000,-31.300,
-102.000,-31.500,
-101.000,-31.700,
-100.000,-32.000,
-99.000,-32.400,
-98.000,-32.900,
-97.000,-33.400,
-96.000,-34.000,
-95.000,-34.600,
-94.000,-35.200,
-93.000,-35.700,
-92.000,-35.700,
-91.000,-35.400,
-90.000,-34.800,
-89.000,-33.700,
-88.000,-32.700,
-87.000,-31.800,
-86.000,-30.900,
-85.000,-30.100,
-84.000,-29.500,
-83.000,-28.900,
-82.000,-28.400,
-81.000,-28.000,
-80.000,-27.500,
-79.000,-27.000,
-78.000,-26.500,
-77.000,-25.900,
-76.000,-25.300,
-75.000,-24.700,
-74.000,-24.100,
-73.000,-23.500,
-72.000,-23.000,
-71.000,-22.400,
-70.000,-21.800,
-69.000,-21.200,
-68.000,-20.700,
-67.000,-20.200,
-66.000,-19.700,
-65.000,-19.100,
-64.000,-18.600,
-63.000,-18.100,
-62.000,-17.500,
-61.000,-16.900,
-60.000,-16.400,
-59.000,-15.800,
-58.000,-15.100,
-57.000,-14.500,
-56.000,-13.900,
-55.000,-13.300,
-54.000,-12.700,
-53.000,-12.100,
-52.000,-11.500,
-51.000,-10.900,
-50.000,-10.300,
-49.000,-9.800,
-48.000,-9.300,
-47.000,-8.800,
-46.000,-8.300,
-45.000,-7.800,
-44.000,-7.400,
-43.000,-7.000,
-42.000,-6.600,
-41.000,-6.200,
-40.000,-5.800,
-39.000,-5.500,
-38.000,-5.100,
-37.000,-4.800,
-36.000,-4.500,
-35.000,-4.200,
-34.000,-4.000,
-33.000,-3.700,
-32.000,-3.400,
-31.000,-3.200,
-30.000,-2.900,
-29.000,-2.700,
-28.000,-2.500,
-27.000,-2.300,
-26.000,-2.100,
-25.000,-1.900,
-24.000,-1.800,
-23.000,-1.600,
-22.000,-1.500,
-21.000,-1.300,
-20.000,-1.200,
-19.000,-1.100,
-18.000,-1.000,
-17.000,-0.900,
-16.000,-0.800,
-15.000,-0.700,
-14.000,-0.600,
-13.000,-0.500,
-12.000,-0.500,
-11.000,-0.400,
-10.000,-0.400,
-9.000,-0.300,
-8.000,-0.300,
-7.000,-0.200,
-6.000,-0.200,
-5.000,-0.100,
-4.000,-0.100,
-3.000,-0.100,
-2.000,0.000,
-1.000,0.000,
0.000,0.000,
1.000,0.000,
2.000,0.000,
3.000,0.000,
4.000,0.000,
5.000,-0.100,
6.000,-0.100,
7.000,-0.200,
8.000,-0.200,
9.000,-0.300,
10.000,-0.300,
11.000,-0.400,
12.000,-0.500,
13.000,-0.500,
14.000,-0.600,
15.000,-0.700,
16.000,-0.800,
17.000,-0.900,
18.000,-1.000,
19.000,-1.100,
20.000,-1.300,
21.000,-1.400,
22.000,-1.500,
23.000,-1.700,
24.000,-1.800,
25.000,-2.000,
26.000,-2.100,
27.000,-2.300,
28.000,-2.500,
29.000,-2.700,
30.000,-2.900,
31.000,-3.200,
32.000,-3.400,
33.000,-3.700,
34.000,-4.000,
35.000,-4.300,
36.000,-4.500,
37.000,-4.800,
38.000,-5.100,
39.000,-5.400,
40.000,-5.700,
41.000,-6.000,
42.000,-6.200,
43.000,-6.600,
44.000,-6.900,
45.000,-7.300,
46.000,-7.700,
47.000,-8.100,
48.000,-8.600,
49.000,-9.100,
50.000,-9.800,
51.000,-10.400,
52.000,-11.100,
53.000,-11.900,
54.000,-12.700,
55.000,-13.600,
56.000,-14.500,
57.000,-15.400,
58.000,-16.300,
59.000,-17.300,
60.000,-18.100,
61.000,-18.900,
62.000,-19.600,
63.000,-20.200,
64.000,-20.600,
65.000,-20.800,
66.000,-20.900,
67.000,-21.000,
68.000,-21.000,
69.000,-20.900,
70.000,-20.900,
71.000,-20.900,
72.000,-21.000,
73.000,-21.100,
74.000,-21.300,
75.000,-21.500,
76.000,-21.800,
77.000,-22.300,
78.000,-22.800,
79.000,-23.500,
80.000,-24.200,
81.000,-25.100,
82.000,-26.200,
83.000,-27.400,
84.000,-28.900,
85.000,-30.600,
86.000,-32.600,
87.000,-35.000,
88.000,-37.900,
89.000,-41.500,
90.000,-46.800,
91.000,-53.600,
92.000,-55.500,
93.000,-50.000,
94.000,-47.300,
95.000,-45.200,
96.000,-43.700,
97.000,-42.300,
98.000,-40.400,
99.000,-38.800,
100.000,-37.400,
101.000,-36.200,
102.000,-35.400,
103.000,-34.900,
104.000,-34.700,
105.000,-34.900,
106.000,-35.300,
107.000,-36.000,
108.000,-37.200,
109.000,-38.800,
110.000,-40.900,
111.000,-43.800,
112.000,-47.300,
113.000,-48.700,
114.000,-45.900,
115.000,-42.800,
116.000,-40.400,
117.000,-38.500,
118.000,-36.900,
119.000,-35.600,
120.000,-34.500,
121.000,-33.500,
122.000,-32.800,
123.000,-32.200,
124.000,-31.800,
125.000,-31.500,
126.000,-31.400,
127.000,-31.400,
128.000,-31.600,
129.000,-31.900,
130.000,-32.500,
131.000,-33.200,
132.000,-34.200,
133.000,-35.400,
134.000,-36.900,
135.000,-38.800,
136.000,-40.700,
137.000,-42.400,
138.000,-43.200,
139.000,-42.400,
140.000,-40.900,
141.000,-39.400,
142.000,-38.200,
143.000,-37.200,
144.000,-36.400,
145.000,-35.800,
146.000,-35.400,
147.000,-35.200,
148.000,-35.100,
149.000,-35.100,
150.000,-35.300,
151.000,-35.600,
152.000,-36.000,
153.000,-36.600,
154.000,-37.300,
155.000,-38.100,
156.000,-39.100,
157.000,-40.200,
158.000,-41.300,
159.000,-42.400,
160.000,-43.400,
161.000,-44.100,
162.000,-44.600,
163.000,-44.900,
164.000,-44.900,
165.000,-44.600,
166.000,-44.100,
167.000,-43.400,
168.000,-42.600,
169.000,-41.800,
170.000,-40.900,
171.000,-40.200,
172.000,-39.500,
173.000,-38.800,
174.000,-38.300,
175.000,-37.800,
176.000,-37.400,
177.000,-37.000,
178.000,-36.700,
179.000,-36.400,
PATCUT:,EL
POLARI:,V/V
NUPOIN:,360
FSTLST:,-180,179
-180.000,-35.800,
-179.000,-35.900,
-178.000,-36.100,
-177.000,-36.500,
-176.000,-37.000,
-175.000,-37.700,
-174.000,-38.300,
-173.000,-38.900,
-172.000,-39.100,
-171.000,-38.900,
-170.000,-38.300,
-169.000,-37.600,
-168.000,-36.900,
-167.000,-36.400,
-166.000,-36.100,
-165.000,-36.000,
-164.000,-36.000,
-163.000,-36.100,
-162.000,-36.100,
-161.000,-36.100,
-160.000,-35.800,
-159.000,-35.300,
-158.000,-34.700,
-157.000,-34.100,
-156.000,-33.600,
-155.000,-33.300,
-154.000,-33.100,
-153.000,-33.100,
-152.000,-33.300,
-151.000,-33.500,
-150.000,-33.800,
-149.000,-34.200,
-148.000,-34.600,
-147.000,-34.900,
-146.000,-35.200,
-145.000,-35.500,
-144.000,-35.700,
-143.000,-35.900,
-142.000,-36.100,
-141.000,-36.200,
-140.000,-36.200,
-139.000,-36.200,
-138.000,-36.200,
-137.000,-36.300,
-136.000,-36.500,
-135.000,-36.800,
-134.000,-37.300,
-133.000,-37.900,
-132.000,-38.800,
-131.000,-39.900,
-130.000,-41.200,
-129.000,-42.800,
-128.000,-44.500,
-127.000,-46.300,
-126.000,-48.000,
-125.000,-49.400,
-124.000,-50.100,
-123.000,-49.700,
-122.000,-48.600,
-121.000,-47.400,
-120.000,-46.400,
-119.000,-45.700,
-118.000,-45.300,
-117.000,-45.400,
-116.000,-45.800,
-115.000,-46.700,
-114.000,-47.900,
-113.000,-49.500,
-112.000,-51.500,
-111.000,-53.800,
-110.000,-56.000,
-109.000,-57.200,
-108.000,-56.400,
-107.000,-54.700,
-106.000,-53.100,
-105.000,-52.100,
-104.000,-51.800,
-103.000,-52.000,
-102.000,-52.400,
-101.000,-52.300,
-100.000,-50.800,
-99.000,-48.700,
-98.000,-46.700,
-97.000,-45.100,
-96.000,-43.900,
-95.000,-43.000,
-94.000,-42.400,
-93.000,-41.900,
-92.000,-41.400,
-91.000,-41.100,
-90.000,-40.900,
-89.000,-40.000,
-88.000,-41.700,
-87.000,-43.000,
-86.000,-44.800,
-85.000,-46.600,
-84.000,-47.000,
-83.000,-45.500,
-82.000,-43.500,
-81.000,-41.800,
-80.000,-40.200,
-79.000,-38.600,
-78.000,-37.000,
-77.000,-35.500,
-76.000,-34.100,
-75.000,-33.000,
-74.000,-32.300,
-73.000,-31.700,
-72.000,-31.400,
-71.000,-31.200,
-70.000,-31.100,
-69.000,-30.800,
-68.000,-30.400,
-67.000,-29.900,
-66.000,-29.300,
-65.000,-28.600,
-64.000,-27.900,
-63.000,-27.300,
-62.000,-26.700,
-61.000,-26.200,
-60.000,-25.500,
-59.000,-24.700,
-58.000,-23.800,
-57.000,-22.800,
-56.000,-21.700,
-55.000,-20.700,
-54.000,-19.600,
-53.000,-18.700,
-52.000,-17.700,
-51.000,-16.800,
-50.000,-15.900,
-49.000,-15.100,
-48.000,-14.200,
-47.000,-13.400,
-46.000,-12.600,
-45.000,-11.900,
-44.000,-11.200,
-43.000,-10.600,
-42.000,-9.900,
-41.000,-9.300,
-40.000,-8.800,
-39.000,-8.200,
-38.000,-7.700,
-37.000,-7.200,
-36.000,-6.800,
-35.000,-6.400,
-34.000,-6.000,
-33.000,-5.600,
-32.000,-5.200,
-31.000,-4.900,
-30.000,-4.600,
-29.000,-4.200,
-28.000,-3.900,
-27.000,-3.600,
-26.000,-3.300,
-25.000,-3.100,
-24.000,-2.800,
-23.000,-2.600,
-22.000,-2.300,
-21.000,-2.100,
-20.000,-1.900,
-19.000,-1.700,
-18.000,-1.600,
-17.000,-1.400,
-16.000,-1.200,
-15.000,-1.100,
-14.000,-0.900,
-13.000,-0.800,
-12.000,-0.700,
-11.000,-0.600,
-10.000,-0.500,
-9.000,-0.400,
-8.000,-0.300,
-7.000,-0.200,
-6.000,-0.100,
-5.000,-0.100,
-4.000,-0.100,
-3.000,0.000,
-2.000,0.000,
-1.000,0.000,
0.000,0.000,
1.000,0.000,
2.000,0.000,
3.000,0.000,
4.000,0.000,
5.000,-0.100,
6.000,-0.100,
7.000,-0.200,
8.000,-0.200,
9.000,-0.300,
10.000,-0.400,
11.000,-0.500,
12.000,-0.600,
13.000,-0.700,
14.000,-0.800,
15.000,-0.900,
16.000,-1.100,
17.000,-1.200,
18.000,-1.300,
19.000,-1.500,
20.000,-1.700,
21.000,-1.900,
22.000,-2.100,
23.000,-2.300,
24.000,-2.500,
25.000,-2.700,
26.000,-3.000,
27.000,-3.300,
28.000,-3.500,
29.000,-3.800,
30.000,-4.100,
31.000,-4.400,
32.000,-4.700,
33.000,-5.000,
34.000,-5.400,
35.000,-5.700,
36.000,-6.100,
37.000,-6.500,
38.000,-7.000,
39.000,-7.500,
40.000,-8.000,
41.000,-8.500,
42.000,-9.100,
43.000,-9.700,
44.000,-10.300,
45.000,-11.000,
46.000,-11.600,
47.000,-12.300,
48.000,-13.000,
49.000,-13.700,
50.000,-14.500,
51.000,-15.300,
52.000,-16.200,
53.000,-17.000,
54.000,-17.900,
55.000,-18.800,
56.000,-19.800,
57.000,-20.600,
58.000,-21.500,
59.000,-22.400,
60.000,-23.200,
61.000,-24.100,
62.000,-25.000,
63.000,-25.800,
64.000,-26.600,
65.000,-27.200,
66.000,-27.600,
67.000,-28.000,
68.000,-28.200,
69.000,-28.400,
70.000,-28.700,
71.000,-29.200,
72.000,-29.800,
73.000,-30.600,
74.000,-31.600,
75.000,-32.700,
76.000,-34.100,
77.000,-35.600,
78.000,-37.200,
79.000,-39.100,
80.000,-41.500,
81.000,-45.000,
82.000,-50.600,
83.000,-57.600,
84.000,-50.200,
85.000,-45.700,
86.000,-43.300,
87.000,-42.000,
88.000,-41.500,
89.000,-41.500,
90.000,-42.000,
91.000,-42.900,
92.000,-44.100,
93.000,-45.700,
94.000,-47.700,
95.000,-49.600,
96.000,-49.800,
97.000,-48.100,
98.000,-46.200,
99.000,-45.000,
100.000,-44.500,
101.000,-45.000,
102.000,-46.600,
103.000,-49.700,
104.000,-54.000,
105.000,-51.000,
106.000,-45.700,
107.000,-42.200,
108.000,-39.700,
109.000,-37.900,
110.000,-36.800,
111.000,-36.000,
112.000,-35.700,
113.000,-35.700,
114.000,-36.100,
115.000,-36.800,
116.000,-37.700,
117.000,-38.900,
118.000,-40.300,
119.000,-41.600,
120.000,-42.900,
121.000,-44.000,
122.000,-45.000,
123.000,-45.700,
124.000,-45.800,
125.000,-45.300,
126.000,-43.900,
127.000,-42.100,
128.000,-40.100,
129.000,-38.200,
130.000,-36.600,
131.000,-35.400,
132.000,-34.500,
133.000,-33.900,
134.000,-33.500,
135.000,-33.500,
136.000,-33.800,
137.000,-34.300,
138.000,-35.200,
139.000,-36.400,
140.000,-38.000,
141.000,-40.100,
142.000,-42.700,
143.000,-45.900,
144.000,-49.400,
145.000,-52.000,
146.000,-52.600,
147.000,-52.700,
148.000,-53.800,
149.000,-56.300,
150.000,-56.600,
151.000,-51.200,
152.000,-46.600,
153.000,-43.400,
154.000,-41.300,
155.000,-39.900,
156.000,-39.300,
157.000,-39.100,
158.000,-39.500,
159.000,-40.200,
160.000,-41.100,
161.000,-42.000,
162.000,-42.600,
163.000,-42.500,
164.000,-41.800,
165.000,-40.600,
166.000,-39.400,
167.000,-38.300,
168.000,-37.400,
169.000,-36.800,
170.000,-36.400,
171.000,-36.300,
172.000,-36.300,
173.000,-36.400,
174.000,-36.600,
175.000,-36.700,
176.000,-36.600,
177.000,-36.500,
178.000,-36.200,
179.000,-36.000,
ENDFIL:,EOF
