REVNUM:,NSMA WG16.99.050
REVDAT:,19990520
ANTMAN:,KATHREIN
MODNUM:,762943
DESCR1:,Dipole
DESCR2:,1.9 dBd - Vertical polarization
DESCR3:,1.3 degree
DTDATA:,20060711
LOWFRQ:,87.5
HGHFRQ:,108
GUNITS:,DBD/DBR
MDGAIN:,1.9
AZWIDT:,1.3
ELWIDT:,79.6
ELTILT:,0.0
ANTLEN:,1.38
ANTWID:,0.00
ANTDEP:,0.83
ANTWGT:,13.0
PATTYP:,TYPICAL
NOFREQ:,1
PATFRE:,100.0
NUMCUT:,2
PATCUT:,AZ
POLARI:,V/V
NUPOIN:,360
FSTLST:,-180,179
-180.000,-5.940,
-179.000,-5.940,
-178.000,-5.940,
-177.000,-5.940,
-176.000,-5.940,
-175.000,-5.940,
-174.000,-5.940,
-173.000,-5.940,
-172.000,-5.940,
-171.000,-5.930,
-170.000,-5.930,
-169.000,-5.930,
-168.000,-5.920,
-167.000,-5.920,
-166.000,-5.920,
-165.000,-5.910,
-164.000,-5.900,
-163.000,-5.900,
-162.000,-5.890,
-161.000,-5.880,
-160.000,-5.870,
-159.000,-5.860,
-158.000,-5.850,
-157.000,-5.840,
-156.000,-5.820,
-155.000,-5.800,
-154.000,-5.780,
-153.000,-5.760,
-152.000,-5.740,
-151.000,-5.720,
-150.000,-5.690,
-149.000,-5.660,
-148.000,-5.630,
-147.000,-5.600,
-146.000,-5.560,
-145.000,-5.530,
-144.000,-5.490,
-143.000,-5.440,
-142.000,-5.400,
-141.000,-5.350,
-140.000,-5.300,
-139.000,-5.250,
-138.000,-5.190,
-137.000,-5.130,
-136.000,-5.070,
-135.000,-5.010,
-134.000,-4.950,
-133.000,-4.880,
-132.000,-4.810,
-131.000,-4.740,
-130.000,-4.660,
-129.000,-4.590,
-128.000,-4.510,
-127.000,-4.430,
-126.000,-4.350,
-125.000,-4.260,
-124.000,-4.180,
-123.000,-4.090,
-122.000,-4.010,
-121.000,-3.920,
-120.000,-3.830,
-119.000,-3.740,
-118.000,-3.650,
-117.000,-3.560,
-116.000,-3.470,
-115.000,-3.370,
-114.000,-3.280,
-113.000,-3.190,
-112.000,-3.100,
-111.000,-3.010,
-110.000,-2.910,
-109.000,-2.820,
-108.000,-2.730,
-107.000,-2.640,
-106.000,-2.550,
-105.000,-2.460,
-104.000,-2.380,
-103.000,-2.290,
-102.000,-2.200,
-101.000,-2.120,
-100.000,-2.030,
-99.000,-1.950,
-98.000,-1.870,
-97.000,-1.790,
-96.000,-1.720,
-95.000,-1.640,
-94.000,-1.570,
-93.000,-1.490,
-92.000,-1.420,
-91.000,-1.350,
-90.000,-1.280,
-89.000,-1.220,
-88.000,-1.150,
-87.000,-1.090,
-86.000,-1.030,
-85.000,-0.970,
-84.000,-0.910,
-83.000,-0.860,
-82.000,-0.800,
-81.000,-0.750,
-80.000,-0.700,
-79.000,-0.660,
-78.000,-0.610,
-77.000,-0.560,
-76.000,-0.520,
-75.000,-0.480,
-74.000,-0.440,
-73.000,-0.410,
-72.000,-0.370,
-71.000,-0.340,
-70.000,-0.310,
-69.000,-0.280,
-68.000,-0.250,
-67.000,-0.220,
-66.000,-0.200,
-65.000,-0.180,
-64.000,-0.150,
-63.000,-0.130,
-62.000,-0.120,
-61.000,-0.100,
-60.000,-0.080,
-59.000,-0.070,
-58.000,-0.060,
-57.000,-0.050,
-56.000,-0.040,
-55.000,-0.030,
-54.000,-0.020,
-53.000,-0.010,
-52.000,-0.010,
-51.000,-0.010,
-50.000,0.000,
-49.000,0.000,
-48.000,0.000,
-47.000,0.000,
-46.000,0.000,
-45.000,0.000,
-44.000,-0.010,
-43.000,-0.010,
-42.000,-0.010,
-41.000,-0.020,
-40.000,-0.020,
-39.000,-0.030,
-38.000,-0.040,
-37.000,-0.040,
-36.000,-0.050,
-35.000,-0.060,
-34.000,-0.070,
-33.000,-0.080,
-32.000,-0.090,
-31.000,-0.090,
-30.000,-0.100,
-29.000,-0.110,
-28.000,-0.120,
-27.000,-0.130,
-26.000,-0.140,
-25.000,-0.150,
-24.000,-0.160,
-23.000,-0.170,
-22.000,-0.180,
-21.000,-0.190,
-20.000,-0.200,
-19.000,-0.210,
-18.000,-0.220,
-17.000,-0.220,
-16.000,-0.230,
-15.000,-0.240,
-14.000,-0.250,
-13.000,-0.250,
-12.000,-0.260,
-11.000,-0.270,
-10.000,-0.270,
-9.000,-0.280,
-8.000,-0.280,
-7.000,-0.290,
-6.000,-0.290,
-5.000,-0.290,
-4.000,-0.290,
-3.000,-0.300,
-2.000,-0.300,
-1.000,-0.300,
0.000,-0.300,
1.000,-0.300,
2.000,-0.300,
3.000,-0.300,
4.000,-0.290,
5.000,-0.290,
6.000,-0.290,
7.000,-0.290,
8.000,-0.280,
9.000,-0.280,
10.000,-0.270,
11.000,-0.270,
12.000,-0.260,
13.000,-0.250,
14.000,-0.250,
15.000,-0.240,
16.000,-0.230,
17.000,-0.220,
18.000,-0.220,
19.000,-0.210,
20.000,-0.200,
21.000,-0.190,
22.000,-0.180,
23.000,-0.170,
24.000,-0.160,
25.000,-0.150,
26.000,-0.140,
27.000,-0.130,
28.000,-0.120,
29.000,-0.110,
30.000,-0.100,
31.000,-0.090,
32.000,-0.090,
33.000,-0.080,
34.000,-0.070,
35.000,-0.060,
36.000,-0.050,
37.000,-0.040,
38.000,-0.040,
39.000,-0.030,
40.000,-0.020,
41.000,-0.020,
42.000,-0.010,
43.000,-0.010,
44.000,-0.010,
45.000,0.000,
46.000,0.000,
47.000,0.000,
48.000,0.000,
49.000,0.000,
50.000,0.000,
51.000,-0.010,
52.000,-0.010,
53.000,-0.010,
54.000,-0.020,
55.000,-0.030,
56.000,-0.040,
57.000,-0.050,
58.000,-0.060,
59.000,-0.070,
60.000,-0.080,
61.000,-0.100,
62.000,-0.120,
63.000,-0.130,
64.000,-0.150,
65.000,-0.180,
66.000,-0.200,
67.000,-0.220,
68.000,-0.250,
69.000,-0.280,
70.000,-0.310,
71.000,-0.340,
72.000,-0.370,
73.000,-0.410,
74.000,-0.440,
75.000,-0.480,
76.000,-0.520,
77.000,-0.560,
78.000,-0.610,
79.000,-0.660,
80.000,-0.700,
81.000,-0.750,
82.000,-0.800,
83.000,-0.860,
84.000,-0.910,
85.000,-0.970,
86.000,-1.030,
87.000,-1.090,
88.000,-1.150,
89.000,-1.220,
90.000,-1.280,
91.000,-1.350,
92.000,-1.420,
93.000,-1.490,
94.000,-1.570,
95.000,-1.640,
96.000,-1.720,
97.000,-1.790,
98.000,-1.870,
99.000,-1.950,
100.000,-2.030,
101.000,-2.120,
102.000,-2.200,
103.000,-2.290,
104.000,-2.380,
105.000,-2.460,
106.000,-2.550,
107.000,-2.640,
108.000,-2.730,
109.000,-2.820,
110.000,-2.910,
111.000,-3.010,
112.000,-3.100,
113.000,-3.190,
114.000,-3.280,
115.000,-3.370,
116.000,-3.470,
117.000,-3.560,
118.000,-3.650,
119.000,-3.740,
120.000,-3.830,
121.000,-3.920,
122.000,-4.010,
123.000,-4.090,
124.000,-4.180,
125.000,-4.260,
126.000,-4.350,
127.000,-4.430,
128.000,-4.510,
129.000,-4.590,
130.000,-4.660,
131.000,-4.740,
132.000,-4.810,
133.000,-4.880,
134.000,-4.950,
135.000,-5.010,
136.000,-5.070,
137.000,-5.130,
138.000,-5.190,
139.000,-5.250,
140.000,-5.300,
141.000,-5.350,
142.000,-5.400,
143.000,-5.440,
144.000,-5.490,
145.000,-5.530,
146.000,-5.560,
147.000,-5.600,
148.000,-5.630,
149.000,-5.660,
150.000,-5.690,
151.000,-5.720,
152.000,-5.740,
153.000,-5.760,
154.000,-5.780,
155.000,-5.800,
156.000,-5.820,
157.000,-5.840,
158.000,-5.850,
159.000,-5.860,
160.000,-5.870,
161.000,-5.880,
162.000,-5.890,
163.000,-5.900,
164.000,-5.900,
165.000,-5.910,
166.000,-5.920,
167.000,-5.920,
168.000,-5.920,
169.000,-5.930,
170.000,-5.930,
171.000,-5.930,
172.000,-5.940,
173.000,-5.940,
174.000,-5.940,
175.000,-5.940,
176.000,-5.940,
177.000,-5.940,
178.000,-5.940,
179.000,-5.940,
PATCUT:,EL
POLARI:,V/V
NUPOIN:,360
FSTLST:,-180,179
-180.000,-5.640,
-179.000,-5.640,
-178.000,-5.650,
-177.000,-5.660,
-176.000,-5.670,
-175.000,-5.680,
-174.000,-5.700,
-173.000,-5.710,
-172.000,-5.740,
-171.000,-5.760,
-170.000,-5.790,
-169.000,-5.820,
-168.000,-5.850,
-167.000,-5.880,
-166.000,-5.920,
-165.000,-5.960,
-164.000,-6.000,
-163.000,-6.050,
-162.000,-6.090,
-161.000,-6.140,
-160.000,-6.200,
-159.000,-6.250,
-158.000,-6.310,
-157.000,-6.370,
-156.000,-6.430,
-155.000,-6.500,
-154.000,-6.560,
-153.000,-6.630,
-152.000,-6.710,
-151.000,-6.780,
-150.000,-6.860,
-149.000,-6.940,
-148.000,-7.020,
-147.000,-7.110,
-146.000,-7.200,
-145.000,-7.290,
-144.000,-7.380,
-143.000,-7.480,
-142.000,-7.580,
-141.000,-7.690,
-140.000,-7.800,
-139.000,-7.910,
-138.000,-8.030,
-137.000,-8.150,
-136.000,-8.270,
-135.000,-8.400,
-134.000,-8.540,
-133.000,-8.670,
-132.000,-8.820,
-131.000,-8.970,
-130.000,-9.130,
-129.000,-9.290,
-128.000,-9.460,
-127.000,-9.640,
-126.000,-9.820,
-125.000,-10.010,
-124.000,-10.210,
-123.000,-10.420,
-122.000,-10.630,
-121.000,-10.860,
-120.000,-11.100,
-119.000,-11.350,
-118.000,-11.610,
-117.000,-11.880,
-116.000,-12.170,
-115.000,-12.480,
-114.000,-12.790,
-113.000,-13.130,
-112.000,-13.490,
-111.000,-13.860,
-110.000,-14.260,
-109.000,-14.690,
-108.000,-15.140,
-107.000,-15.630,
-106.000,-16.150,
-105.000,-16.710,
-104.000,-17.320,
-103.000,-17.980,
-102.000,-18.700,
-101.000,-19.500,
-100.000,-20.380,
-99.000,-21.370,
-98.000,-22.490,
-97.000,-23.780,
-96.000,-25.270,
-95.000,-27.010,
-94.000,-29.030,
-93.000,-31.190,
-92.000,-32.770,
-91.000,-32.480,
-90.000,-30.570,
-89.000,-28.310,
-88.000,-26.260,
-87.000,-24.490,
-86.000,-22.960,
-85.000,-21.620,
-84.000,-20.440,
-83.000,-19.390,
-82.000,-18.430,
-81.000,-17.560,
-80.000,-16.760,
-79.000,-16.020,
-78.000,-15.340,
-77.000,-14.690,
-76.000,-14.080,
-75.000,-13.510,
-74.000,-12.980,
-73.000,-12.470,
-72.000,-11.980,
-71.000,-11.520,
-70.000,-11.070,
-69.000,-10.650,
-68.000,-10.240,
-67.000,-9.850,
-66.000,-9.480,
-65.000,-9.110,
-64.000,-8.770,
-63.000,-8.430,
-62.000,-8.110,
-61.000,-7.790,
-60.000,-7.490,
-59.000,-7.190,
-58.000,-6.910,
-57.000,-6.630,
-56.000,-6.370,
-55.000,-6.110,
-54.000,-5.860,
-53.000,-5.610,
-52.000,-5.380,
-51.000,-5.150,
-50.000,-4.920,
-49.000,-4.710,
-48.000,-4.500,
-47.000,-4.290,
-46.000,-4.100,
-45.000,-3.910,
-44.000,-3.720,
-43.000,-3.540,
-42.000,-3.360,
-41.000,-3.190,
-40.000,-3.030,
-39.000,-2.870,
-38.000,-2.720,
-37.000,-2.570,
-36.000,-2.420,
-35.000,-2.280,
-34.000,-2.150,
-33.000,-2.020,
-32.000,-1.890,
-31.000,-1.770,
-30.000,-1.650,
-29.000,-1.540,
-28.000,-1.430,
-27.000,-1.330,
-26.000,-1.230,
-25.000,-1.140,
-24.000,-1.050,
-23.000,-0.960,
-22.000,-0.870,
-21.000,-0.790,
-20.000,-0.720,
-19.000,-0.650,
-18.000,-0.580,
-17.000,-0.520,
-16.000,-0.460,
-15.000,-0.400,
-14.000,-0.350,
-13.000,-0.300,
-12.000,-0.260,
-11.000,-0.210,
-10.000,-0.180,
-9.000,-0.140,
-8.000,-0.110,
-7.000,-0.090,
-6.000,-0.060,
-5.000,-0.040,
-4.000,-0.030,
-3.000,-0.020,
-2.000,-0.010,
-1.000,0.000,
0.000,0.000,
1.000,0.000,
2.000,-0.010,
3.000,-0.020,
4.000,-0.030,
5.000,-0.040,
6.000,-0.060,
7.000,-0.090,
8.000,-0.110,
9.000,-0.140,
10.000,-0.180,
11.000,-0.210,
12.000,-0.260,
13.000,-0.300,
14.000,-0.350,
15.000,-0.400,
16.000,-0.460,
17.000,-0.520,
18.000,-0.580,
19.000,-0.650,
20.000,-0.720,
21.000,-0.790,
22.000,-0.870,
23.000,-0.960,
24.000,-1.050,
25.000,-1.140,
26.000,-1.230,
27.000,-1.330,
28.000,-1.430,
29.000,-1.540,
30.000,-1.650,
31.000,-1.770,
32.000,-1.890,
33.000,-2.020,
34.000,-2.150,
35.000,-2.280,
36.000,-2.420,
37.000,-2.570,
38.000,-2.720,
39.000,-2.870,
40.000,-3.030,
41.000,-3.190,
42.000,-3.360,
43.000,-3.540,
44.000,-3.720,
45.000,-3.910,
46.000,-4.100,
47.000,-4.290,
48.000,-4.500,
49.000,-4.710,
50.000,-4.920,
51.000,-5.150,
52.000,-5.380,
53.000,-5.610,
54.000,-5.860,
55.000,-6.110,
56.000,-6.370,
57.000,-6.630,
58.000,-6.910,
59.000,-7.190,
60.000,-7.490,
61.000,-7.790,
62.000,-8.110,
63.000,-8.430,
64.000,-8.770,
65.000,-9.110,
66.000,-9.480,
67.000,-9.850,
68.000,-10.240,
69.000,-10.650,
70.000,-11.070,
71.000,-11.520,
72.000,-11.980,
73.000,-12.470,
74.000,-12.980,
75.000,-13.510,
76.000,-14.080,
77.000,-14.690,
78.000,-15.340,
79.000,-16.020,
80.000,-16.760,
81.000,-17.560,
82.000,-18.430,
83.000,-19.390,
84.000,-20.440,
85.000,-21.620,
86.000,-22.960,
87.000,-24.490,
88.000,-26.260,
89.000,-28.310,
90.000,-30.570,
91.000,-32.480,
92.000,-32.770,
93.000,-31.190,
94.000,-29.030,
95.000,-27.010,
96.000,-25.270,
97.000,-23.780,
98.000,-22.490,
99.000,-21.370,
100.000,-20.380,
101.000,-19.500,
102.000,-18.700,
103.000,-17.980,
104.000,-17.320,
105.000,-16.710,
106.000,-16.150,
107.000,-15.630,
108.000,-15.140,
109.000,-14.690,
110.000,-14.260,
111.000,-13.860,
112.000,-13.490,
113.000,-13.130,
114.000,-12.790,
115.000,-12.480,
116.000,-12.170,
117.000,-11.880,
118.000,-11.610,
119.000,-11.350,
120.000,-11.100,
121.000,-10.860,
122.000,-10.630,
123.000,-10.420,
124.000,-10.210,
125.000,-10.010,
126.000,-9.820,
127.000,-9.640,
128.000,-9.460,
129.000,-9.290,
130.000,-9.130,
131.000,-8.970,
132.000,-8.820,
133.000,-8.670,
134.000,-8.540,
135.000,-8.400,
136.000,-8.270,
137.000,-8.150,
138.000,-8.030,
139.000,-7.910,
140.000,-7.800,
141.000,-7.690,
142.000,-7.580,
143.000,-7.480,
144.000,-7.380,
145.000,-7.290,
146.000,-7.200,
147.000,-7.110,
148.000,-7.020,
149.000,-6.940,
150.000,-6.860,
151.000,-6.780,
152.000,-6.710,
153.000,-6.630,
154.000,-6.560,
155.000,-6.500,
156.000,-6.430,
157.000,-6.370,
158.000,-6.310,
159.000,-6.250,
160.000,-6.200,
161.000,-6.140,
162.000,-6.090,
163.000,-6.050,
164.000,-6.000,
165.000,-5.960,
166.000,-5.920,
167.000,-5.880,
168.000,-5.850,
169.000,-5.820,
170.000,-5.790,
171.000,-5.760,
172.000,-5.740,
173.000,-5.710,
174.000,-5.700,
175.000,-5.680,
176.000,-5.670,
177.000,-5.660,
178.000,-5.650,
179.000,-5.640,
ENDFIL:,EOF
