REVNUM:,NSMA WG16.99.050
REVDAT:,20050520
ANTMAN:,COMPROD
MODNUM:,871F-70-025  
DESCR1:,CP870 Series VHF Exposed Dipoles
DESCR2:,Vertical polarization
DESCR3:,0 deg dt
DESCR4:,Quasi Omni
DTDATA:,20050101
LOWFRQ:,138.0
HGHFRQ:,174.0
GUNITS:,DBD/DBR
MDGAIN:,2.21
AZWIDT:,207.8
ELWIDT:,75.9
CONTYP:,N
ATVSWR:,1.5
ELTILT:,0.0
MAXPOW:,500
ANTLEN:,0 dimension L
ANTWID:,0 dimension W
ANTDEP:,0 dimension H
ANTWGT:,0 weight in kg
PATTYP:,TYPICAL
NOFREQ:,1
PATFRE:,174.0
NUMCUT:,2
PATCUT:,AZ
POLARI:,V/V
NUPOIN:,360
FSTLST:,-180,179
-180.000, -7.610
-179.000, -7.610
-178.000, -7.610
-177.000, -7.610
-176.000, -7.610
-175.000, -7.600
-174.000, -7.600
-173.000, -7.600
-172.000, -7.590
-171.000, -7.580
-170.000, -7.580
-169.000, -7.570
-168.000, -7.560
-167.000, -7.550
-166.000, -7.540
-165.000, -7.520
-164.000, -7.510
-163.000, -7.500
-162.000, -7.480
-161.000, -7.460
-160.000, -7.440
-159.000, -7.420
-158.000, -7.390
-157.000, -7.370
-156.000, -7.340
-155.000, -7.310
-154.000, -7.280
-153.000, -7.240
-152.000, -7.210
-151.000, -7.170
-150.000, -7.130
-149.000, -7.080
-148.000, -7.030
-147.000, -6.980
-146.000, -6.930
-145.000, -6.880
-144.000, -6.820
-143.000, -6.760
-142.000, -6.690
-141.000, -6.630
-140.000, -6.560
-139.000, -6.480
-138.000, -6.410
-137.000, -6.330
-136.000, -6.250
-135.000, -6.170
-134.000, -6.090
-133.000, -6.000
-132.000, -5.910
-131.000, -5.820
-130.000, -5.720
-129.000, -5.630
-128.000, -5.530
-127.000, -5.430
-126.000, -5.330
-125.000, -5.230
-124.000, -5.130
-123.000, -5.020
-122.000, -4.920
-121.000, -4.810
-120.000, -4.710
-119.000, -4.600
-118.000, -4.490
-117.000, -4.380
-116.000, -4.280
-115.000, -4.170
-114.000, -4.060
-113.000, -3.950
-112.000, -3.850
-111.000, -3.740
-110.000, -3.630
-109.000, -3.530
-108.000, -3.420
-107.000, -3.320
-106.000, -3.220
-105.000, -3.110
-104.000, -3.010
-103.000, -2.910
-102.000, -2.820
-101.000, -2.720
-100.000, -2.620
 -99.000, -2.530
 -98.000, -2.440
 -97.000, -2.350
 -96.000, -2.260
 -95.000, -2.170
 -94.000, -2.080
 -93.000, -2.000
 -92.000, -1.910
 -91.000, -1.830
 -90.000, -1.750
 -89.000, -1.680
 -88.000, -1.600
 -87.000, -1.530
 -86.000, -1.460
 -85.000, -1.390
 -84.000, -1.320
 -83.000, -1.250
 -82.000, -1.190
 -81.000, -1.130
 -80.000, -1.070
 -79.000, -1.010
 -78.000, -0.950
 -77.000, -0.900
 -76.000, -0.840
 -75.000, -0.790
 -74.000, -0.740
 -73.000, -0.700
 -72.000, -0.650
 -71.000, -0.610
 -70.000, -0.570
 -69.000, -0.530
 -68.000, -0.490
 -67.000, -0.450
 -66.000, -0.420
 -65.000, -0.390
 -64.000, -0.350
 -63.000, -0.320
 -62.000, -0.300
 -61.000, -0.270
 -60.000, -0.240
 -59.000, -0.220
 -58.000, -0.200
 -57.000, -0.180
 -56.000, -0.160
 -55.000, -0.140
 -54.000, -0.120
 -53.000, -0.110
 -52.000, -0.090
 -51.000, -0.080
 -50.000, -0.070
 -49.000, -0.060
 -48.000, -0.050
 -47.000, -0.040
 -46.000, -0.030
 -45.000, -0.030
 -44.000, -0.020
 -43.000, -0.020
 -42.000, -0.010
 -41.000, -0.010
 -40.000, -0.010
 -39.000, -0.010
 -38.000,  0.000
 -37.000,  0.000
 -36.000,  0.000
 -35.000,  0.000
 -34.000, -0.010
 -33.000, -0.010
 -32.000, -0.010
 -31.000, -0.010
 -30.000, -0.010
 -29.000, -0.020
 -28.000, -0.020
 -27.000, -0.020
 -26.000, -0.030
 -25.000, -0.030
 -24.000, -0.040
 -23.000, -0.040
 -22.000, -0.050
 -21.000, -0.050
 -20.000, -0.050
 -19.000, -0.060
 -18.000, -0.060
 -17.000, -0.070
 -16.000, -0.070
 -15.000, -0.070
 -14.000, -0.080
 -13.000, -0.080
 -12.000, -0.090
 -11.000, -0.090
 -10.000, -0.090
  -9.000, -0.090
  -8.000, -0.100
  -7.000, -0.100
  -6.000, -0.100
  -5.000, -0.100
  -4.000, -0.100
  -3.000, -0.110
  -2.000, -0.110
  -1.000, -0.110
   0.000, -0.110
   1.000, -0.110
   2.000, -0.110
   3.000, -0.110
   4.000, -0.100
   5.000, -0.100
   6.000, -0.100
   7.000, -0.100
   8.000, -0.100
   9.000, -0.090
  10.000, -0.090
  11.000, -0.090
  12.000, -0.090
  13.000, -0.080
  14.000, -0.080
  15.000, -0.070
  16.000, -0.070
  17.000, -0.070
  18.000, -0.060
  19.000, -0.060
  20.000, -0.050
  21.000, -0.050
  22.000, -0.050
  23.000, -0.040
  24.000, -0.040
  25.000, -0.030
  26.000, -0.030
  27.000, -0.020
  28.000, -0.020
  29.000, -0.020
  30.000, -0.010
  31.000, -0.010
  32.000, -0.010
  33.000, -0.010
  34.000, -0.010
  35.000,  0.000
  36.000,  0.000
  37.000,  0.000
  38.000,  0.000
  39.000, -0.010
  40.000, -0.010
  41.000, -0.010
  42.000, -0.010
  43.000, -0.020
  44.000, -0.020
  45.000, -0.030
  46.000, -0.030
  47.000, -0.040
  48.000, -0.050
  49.000, -0.060
  50.000, -0.070
  51.000, -0.080
  52.000, -0.090
  53.000, -0.110
  54.000, -0.120
  55.000, -0.140
  56.000, -0.160
  57.000, -0.180
  58.000, -0.200
  59.000, -0.220
  60.000, -0.240
  61.000, -0.270
  62.000, -0.300
  63.000, -0.320
  64.000, -0.350
  65.000, -0.390
  66.000, -0.420
  67.000, -0.450
  68.000, -0.490
  69.000, -0.530
  70.000, -0.570
  71.000, -0.610
  72.000, -0.650
  73.000, -0.700
  74.000, -0.740
  75.000, -0.790
  76.000, -0.840
  77.000, -0.900
  78.000, -0.950
  79.000, -1.010
  80.000, -1.070
  81.000, -1.130
  82.000, -1.190
  83.000, -1.250
  84.000, -1.320
  85.000, -1.390
  86.000, -1.460
  87.000, -1.530
  88.000, -1.600
  89.000, -1.680
  90.000, -1.750
  91.000, -1.830
  92.000, -1.910
  93.000, -2.000
  94.000, -2.080
  95.000, -2.170
  96.000, -2.260
  97.000, -2.350
  98.000, -2.440
  99.000, -2.530
 100.000, -2.620
 101.000, -2.720
 102.000, -2.820
 103.000, -2.910
 104.000, -3.010
 105.000, -3.110
 106.000, -3.220
 107.000, -3.320
 108.000, -3.420
 109.000, -3.530
 110.000, -3.630
 111.000, -3.740
 112.000, -3.850
 113.000, -3.950
 114.000, -4.060
 115.000, -4.170
 116.000, -4.280
 117.000, -4.380
 118.000, -4.490
 119.000, -4.600
 120.000, -4.710
 121.000, -4.810
 122.000, -4.920
 123.000, -5.020
 124.000, -5.130
 125.000, -5.230
 126.000, -5.330
 127.000, -5.430
 128.000, -5.530
 129.000, -5.630
 130.000, -5.720
 131.000, -5.820
 132.000, -5.910
 133.000, -6.000
 134.000, -6.090
 135.000, -6.170
 136.000, -6.250
 137.000, -6.330
 138.000, -6.410
 139.000, -6.480
 140.000, -6.560
 141.000, -6.630
 142.000, -6.690
 143.000, -6.760
 144.000, -6.820
 145.000, -6.880
 146.000, -6.930
 147.000, -6.980
 148.000, -7.030
 149.000, -7.080
 150.000, -7.130
 151.000, -7.170
 152.000, -7.210
 153.000, -7.240
 154.000, -7.280
 155.000, -7.310
 156.000, -7.340
 157.000, -7.370
 158.000, -7.390
 159.000, -7.420
 160.000, -7.440
 161.000, -7.460
 162.000, -7.480
 163.000, -7.500
 164.000, -7.510
 165.000, -7.520
 166.000, -7.540
 167.000, -7.550
 168.000, -7.560
 169.000, -7.570
 170.000, -7.580
 171.000, -7.580
 172.000, -7.590
 173.000, -7.600
 174.000, -7.600
 175.000, -7.600
 176.000, -7.610
 177.000, -7.610
 178.000, -7.610
 179.000, -7.610
PATCUT:,EL
POLARI:,V/V
NUPOIN:,360
FSTLST:,-180,179
-180.000, -7.500
-179.000, -7.530
-178.000, -7.550
-177.000, -7.580
-176.000, -7.620
-175.000, -7.650
-174.000, -7.690
-173.000, -7.730
-172.000, -7.770
-171.000, -7.810
-170.000, -7.850
-169.000, -7.900
-168.000, -7.950
-167.000, -8.000
-166.000, -8.060
-165.000, -8.110
-164.000, -8.170
-163.000, -8.230
-162.000, -8.290
-161.000, -8.360
-160.000, -8.420
-159.000, -8.490
-158.000, -8.570
-157.000, -8.640
-156.000, -8.720
-155.000, -8.800
-154.000, -8.880
-153.000, -8.960
-152.000, -9.050
-151.000, -9.140
-150.000, -9.240
-149.000, -9.340
-148.000, -9.440
-147.000, -9.540
-146.000, -9.650
-145.000, -9.760
-144.000, -9.880
-143.000, -9.990
-142.000,-10.120
-141.000,-10.250
-140.000,-10.380
-139.000,-10.520
-138.000,-10.660
-137.000,-10.810
-136.000,-10.960
-135.000,-11.120
-134.000,-11.290
-133.000,-11.460
-132.000,-11.640
-131.000,-11.830
-130.000,-12.030
-129.000,-12.230
-128.000,-12.440
-127.000,-12.670
-126.000,-12.900
-125.000,-13.140
-124.000,-13.400
-123.000,-13.660
-122.000,-13.940
-121.000,-14.240
-120.000,-14.550
-119.000,-14.870
-118.000,-15.220
-117.000,-15.580
-116.000,-15.970
-115.000,-16.370
-114.000,-16.810
-113.000,-17.270
-112.000,-17.770
-111.000,-18.300
-110.000,-18.880
-109.000,-19.500
-108.000,-20.180
-107.000,-20.930
-106.000,-21.750
-105.000,-22.670
-104.000,-23.710
-103.000,-24.910
-102.000,-26.310
-101.000,-27.990
-100.000,-30.100
 -99.000,-32.890
 -98.000,-36.970
 -97.000,-43.820
 -96.000,-43.930
 -95.000,-36.950
 -94.000,-32.750
 -93.000,-29.870
 -92.000,-27.680
 -91.000,-25.920
 -90.000,-24.440
 -89.000,-23.170
 -88.000,-22.040
 -87.000,-21.040
 -86.000,-20.140
 -85.000,-19.310
 -84.000,-18.550
 -83.000,-17.840
 -82.000,-17.180
 -81.000,-16.560
 -80.000,-15.980
 -79.000,-15.430
 -78.000,-14.910
 -77.000,-14.410
 -76.000,-13.930
 -75.000,-13.480
 -74.000,-13.040
 -73.000,-12.620
 -72.000,-12.210
 -71.000,-11.820
 -70.000,-11.440
 -69.000,-11.080
 -68.000,-10.720
 -67.000,-10.380
 -66.000,-10.040
 -65.000, -9.710
 -64.000, -9.400
 -63.000, -9.090
 -62.000, -8.780
 -61.000, -8.490
 -60.000, -8.200
 -59.000, -7.920
 -58.000, -7.650
 -57.000, -7.380
 -56.000, -7.110
 -55.000, -6.860
 -54.000, -6.600
 -53.000, -6.360
 -52.000, -6.120
 -51.000, -5.880
 -50.000, -5.650
 -49.000, -5.420
 -48.000, -5.200
 -47.000, -4.980
 -46.000, -4.770
 -45.000, -4.560
 -44.000, -4.360
 -43.000, -4.160
 -42.000, -3.970
 -41.000, -3.780
 -40.000, -3.590
 -39.000, -3.410
 -38.000, -3.240
 -37.000, -3.060
 -36.000, -2.900
 -35.000, -2.740
 -34.000, -2.580
 -33.000, -2.430
 -32.000, -2.280
 -31.000, -2.130
 -30.000, -1.990
 -29.000, -1.860
 -28.000, -1.730
 -27.000, -1.610
 -26.000, -1.490
 -25.000, -1.370
 -24.000, -1.260
 -23.000, -1.150
 -22.000, -1.050
 -21.000, -0.960
 -20.000, -0.860
 -19.000, -0.780
 -18.000, -0.690
 -17.000, -0.620
 -16.000, -0.540
 -15.000, -0.480
 -14.000, -0.410
 -13.000, -0.350
 -12.000, -0.300
 -11.000, -0.250
 -10.000, -0.200
  -9.000, -0.160
  -8.000, -0.130
  -7.000, -0.090
  -6.000, -0.070
  -5.000, -0.050
  -4.000, -0.030
  -3.000, -0.010
  -2.000,  0.000
  -1.000,  0.000
   0.000,  0.000
   1.000,  0.000
   2.000, -0.010
   3.000, -0.020
   4.000, -0.030
   5.000, -0.050
   6.000, -0.080
   7.000, -0.100
   8.000, -0.140
   9.000, -0.170
  10.000, -0.210
  11.000, -0.250
  12.000, -0.300
  13.000, -0.350
  14.000, -0.410
  15.000, -0.460
  16.000, -0.530
  17.000, -0.590
  18.000, -0.660
  19.000, -0.730
  20.000, -0.810
  21.000, -0.890
  22.000, -0.970
  23.000, -1.060
  24.000, -1.150
  25.000, -1.250
  26.000, -1.340
  27.000, -1.450
  28.000, -1.550
  29.000, -1.660
  30.000, -1.770
  31.000, -1.890
  32.000, -2.010
  33.000, -2.130
  34.000, -2.260
  35.000, -2.390
  36.000, -2.530
  37.000, -2.670
  38.000, -2.810
  39.000, -2.960
  40.000, -3.110
  41.000, -3.260
  42.000, -3.420
  43.000, -3.580
  44.000, -3.750
  45.000, -3.920
  46.000, -4.090
  47.000, -4.270
  48.000, -4.460
  49.000, -4.640
  50.000, -4.840
  51.000, -5.030
  52.000, -5.230
  53.000, -5.440
  54.000, -5.650
  55.000, -5.860
  56.000, -6.080
  57.000, -6.310
  58.000, -6.540
  59.000, -6.770
  60.000, -7.010
  61.000, -7.260
  62.000, -7.510
  63.000, -7.770
  64.000, -8.030
  65.000, -8.300
  66.000, -8.580
  67.000, -8.860
  68.000, -9.150
  69.000, -9.440
  70.000, -9.750
  71.000,-10.060
  72.000,-10.380
  73.000,-10.700
  74.000,-11.040
  75.000,-11.390
  76.000,-11.740
  77.000,-12.110
  78.000,-12.490
  79.000,-12.880
  80.000,-13.280
  81.000,-13.700
  82.000,-14.130
  83.000,-14.570
  84.000,-15.030
  85.000,-15.510
  86.000,-16.010
  87.000,-16.530
  88.000,-17.070
  89.000,-17.630
  90.000,-18.220
  91.000,-18.830
  92.000,-19.460
  93.000,-20.100
  94.000,-20.770
  95.000,-21.440
  96.000,-22.100
  97.000,-22.730
  98.000,-23.300
  99.000,-23.780
 100.000,-24.120
 101.000,-24.290
 102.000,-24.260
 103.000,-24.060
 104.000,-23.690
 105.000,-23.200
 106.000,-22.630
 107.000,-22.010
 108.000,-21.380
 109.000,-20.740
 110.000,-20.110
 111.000,-19.500
 112.000,-18.910
 113.000,-18.350
 114.000,-17.810
 115.000,-17.290
 116.000,-16.800
 117.000,-16.320
 118.000,-15.870
 119.000,-15.440
 120.000,-15.030
 121.000,-14.630
 122.000,-14.260
 123.000,-13.890
 124.000,-13.550
 125.000,-13.210
 126.000,-12.900
 127.000,-12.590
 128.000,-12.300
 129.000,-12.010
 130.000,-11.740
 131.000,-11.480
 132.000,-11.240
 133.000,-11.000
 134.000,-10.770
 135.000,-10.550
 136.000,-10.340
 137.000,-10.140
 138.000, -9.950
 139.000, -9.770
 140.000, -9.590
 141.000, -9.420
 142.000, -9.270
 143.000, -9.120
 144.000, -8.970
 145.000, -8.840
 146.000, -8.710
 147.000, -8.590
 148.000, -8.470
 149.000, -8.370
 150.000, -8.270
 151.000, -8.170
 152.000, -8.080
 153.000, -8.000
 154.000, -7.930
 155.000, -7.860
 156.000, -7.790
 157.000, -7.730
 158.000, -7.680
 159.000, -7.630
 160.000, -7.590
 161.000, -7.550
 162.000, -7.510
 163.000, -7.480
 164.000, -7.460
 165.000, -7.440
 166.000, -7.420
 167.000, -7.400
 168.000, -7.390
 169.000, -7.390
 170.000, -7.380
 171.000, -7.380
 172.000, -7.390
 173.000, -7.390
 174.000, -7.400
 175.000, -7.410
 176.000, -7.420
 177.000, -7.440
 178.000, -7.460
 179.000, -7.480
ENDFIL:,EOF
