REVNUM:,NSMA WG16.99.050
REVDAT:,20050520
ANTMAN:,COMPROD
MODNUM:,874F-70-05
DESCR1:,CP870 Series VHF Exposed Dipoles
DESCR2:,Vertical polarization
DESCR3:,0 deg dt
DESCR4:,Quasi Omni
DTDATA:,20050101
LOWFRQ:,138.0
HGHFRQ:,174.0
GUNITS:,DBD/DBR
MDGAIN:,8.02
AZWIDT:,86.1
ELWIDT:,16.2
CONTYP:,N
ATVSWR:,1.5
ELTILT:,0.0
MAXPOW:,500
ANTLEN:,0 dimension L
ANTWID:,0 dimension W
ANTDEP:,0 dimension H
ANTWGT:,0 weight in kg
PATTYP:,TYPICAL
NOFREQ:,1
PATFRE:,174.0
NUMCUT:,2
PATCUT:,AZ
POLARI:,V/V
NUPOIN:,360
FSTLST:,-180,179
-180.000, -4.880
-179.000, -4.880
-178.000, -4.880
-177.000, -4.880
-176.000, -4.870
-175.000, -4.870
-174.000, -4.870
-173.000, -4.860
-172.000, -4.850
-171.000, -4.850
-170.000, -4.840
-169.000, -4.830
-168.000, -4.810
-167.000, -4.800
-166.000, -4.790
-165.000, -4.770
-164.000, -4.750
-163.000, -4.730
-162.000, -4.710
-161.000, -4.680
-160.000, -4.650
-159.000, -4.620
-158.000, -4.590
-157.000, -4.550
-156.000, -4.510
-155.000, -4.470
-154.000, -4.420
-153.000, -4.370
-152.000, -4.320
-151.000, -4.270
-150.000, -4.210
-149.000, -4.140
-148.000, -4.080
-147.000, -4.010
-146.000, -3.930
-145.000, -3.860
-144.000, -3.780
-143.000, -3.690
-142.000, -3.610
-141.000, -3.520
-140.000, -3.420
-139.000, -3.330
-138.000, -3.230
-137.000, -3.130
-136.000, -3.030
-135.000, -2.930
-134.000, -2.820
-133.000, -2.720
-132.000, -2.610
-131.000, -2.500
-130.000, -2.400
-129.000, -2.290
-128.000, -2.180
-127.000, -2.070
-126.000, -1.970
-125.000, -1.860
-124.000, -1.760
-123.000, -1.650
-122.000, -1.550
-121.000, -1.450
-120.000, -1.350
-119.000, -1.250
-118.000, -1.160
-117.000, -1.070
-116.000, -0.980
-115.000, -0.900
-114.000, -0.810
-113.000, -0.740
-112.000, -0.660
-111.000, -0.590
-110.000, -0.520
-109.000, -0.460
-108.000, -0.400
-107.000, -0.340
-106.000, -0.290
-105.000, -0.240
-104.000, -0.190
-103.000, -0.160
-102.000, -0.120
-101.000, -0.090
-100.000, -0.060
 -99.000, -0.040
 -98.000, -0.030
 -97.000, -0.010
 -96.000, -0.010
 -95.000,  0.000
 -94.000, -0.010
 -93.000, -0.010
 -92.000, -0.030
 -91.000, -0.040
 -90.000, -0.060
 -89.000, -0.090
 -88.000, -0.120
 -87.000, -0.150
 -86.000, -0.190
 -85.000, -0.240
 -84.000, -0.290
 -83.000, -0.340
 -82.000, -0.390
 -81.000, -0.460
 -80.000, -0.520
 -79.000, -0.590
 -78.000, -0.660
 -77.000, -0.730
 -76.000, -0.810
 -75.000, -0.890
 -74.000, -0.980
 -73.000, -1.060
 -72.000, -1.150
 -71.000, -1.240
 -70.000, -1.340
 -69.000, -1.430
 -68.000, -1.520
 -67.000, -1.620
 -66.000, -1.710
 -65.000, -1.810
 -64.000, -1.910
 -63.000, -2.000
 -62.000, -2.090
 -61.000, -2.190
 -60.000, -2.280
 -59.000, -2.360
 -58.000, -2.450
 -57.000, -2.530
 -56.000, -2.610
 -55.000, -2.680
 -54.000, -2.750
 -53.000, -2.820
 -52.000, -2.880
 -51.000, -2.930
 -50.000, -2.990
 -49.000, -3.030
 -48.000, -3.070
 -47.000, -3.110
 -46.000, -3.140
 -45.000, -3.160
 -44.000, -3.180
 -43.000, -3.190
 -42.000, -3.200
 -41.000, -3.210
 -40.000, -3.210
 -39.000, -3.210
 -38.000, -3.200
 -37.000, -3.190
 -36.000, -3.170
 -35.000, -3.150
 -34.000, -3.130
 -33.000, -3.110
 -32.000, -3.080
 -31.000, -3.060
 -30.000, -3.030
 -29.000, -3.000
 -28.000, -2.970
 -27.000, -2.930
 -26.000, -2.900
 -25.000, -2.870
 -24.000, -2.830
 -23.000, -2.800
 -22.000, -2.770
 -21.000, -2.740
 -20.000, -2.710
 -19.000, -2.670
 -18.000, -2.640
 -17.000, -2.620
 -16.000, -2.590
 -15.000, -2.560
 -14.000, -2.540
 -13.000, -2.510
 -12.000, -2.490
 -11.000, -2.470
 -10.000, -2.450
  -9.000, -2.430
  -8.000, -2.420
  -7.000, -2.400
  -6.000, -2.390
  -5.000, -2.380
  -4.000, -2.370
  -3.000, -2.370
  -2.000, -2.360
  -1.000, -2.360
   0.000, -2.360
   1.000, -2.360
   2.000, -2.360
   3.000, -2.370
   4.000, -2.370
   5.000, -2.380
   6.000, -2.390
   7.000, -2.400
   8.000, -2.420
   9.000, -2.430
  10.000, -2.450
  11.000, -2.470
  12.000, -2.490
  13.000, -2.510
  14.000, -2.540
  15.000, -2.560
  16.000, -2.590
  17.000, -2.620
  18.000, -2.640
  19.000, -2.670
  20.000, -2.710
  21.000, -2.740
  22.000, -2.770
  23.000, -2.800
  24.000, -2.830
  25.000, -2.870
  26.000, -2.900
  27.000, -2.930
  28.000, -2.970
  29.000, -3.000
  30.000, -3.030
  31.000, -3.060
  32.000, -3.080
  33.000, -3.110
  34.000, -3.130
  35.000, -3.150
  36.000, -3.170
  37.000, -3.190
  38.000, -3.200
  39.000, -3.210
  40.000, -3.210
  41.000, -3.210
  42.000, -3.200
  43.000, -3.190
  44.000, -3.180
  45.000, -3.160
  46.000, -3.140
  47.000, -3.110
  48.000, -3.070
  49.000, -3.030
  50.000, -2.990
  51.000, -2.930
  52.000, -2.880
  53.000, -2.820
  54.000, -2.750
  55.000, -2.680
  56.000, -2.610
  57.000, -2.530
  58.000, -2.450
  59.000, -2.360
  60.000, -2.280
  61.000, -2.190
  62.000, -2.090
  63.000, -2.000
  64.000, -1.910
  65.000, -1.810
  66.000, -1.710
  67.000, -1.620
  68.000, -1.520
  69.000, -1.430
  70.000, -1.340
  71.000, -1.240
  72.000, -1.150
  73.000, -1.060
  74.000, -0.980
  75.000, -0.890
  76.000, -0.810
  77.000, -0.730
  78.000, -0.660
  79.000, -0.590
  80.000, -0.520
  81.000, -0.460
  82.000, -0.390
  83.000, -0.340
  84.000, -0.290
  85.000, -0.240
  86.000, -0.190
  87.000, -0.150
  88.000, -0.120
  89.000, -0.090
  90.000, -0.060
  91.000, -0.040
  92.000, -0.030
  93.000, -0.010
  94.000, -0.010
  95.000,  0.000
  96.000, -0.010
  97.000, -0.010
  98.000, -0.030
  99.000, -0.040
 100.000, -0.060
 101.000, -0.090
 102.000, -0.120
 103.000, -0.160
 104.000, -0.190
 105.000, -0.240
 106.000, -0.290
 107.000, -0.340
 108.000, -0.400
 109.000, -0.460
 110.000, -0.520
 111.000, -0.590
 112.000, -0.660
 113.000, -0.740
 114.000, -0.810
 115.000, -0.900
 116.000, -0.980
 117.000, -1.070
 118.000, -1.160
 119.000, -1.250
 120.000, -1.350
 121.000, -1.450
 122.000, -1.550
 123.000, -1.650
 124.000, -1.760
 125.000, -1.860
 126.000, -1.970
 127.000, -2.070
 128.000, -2.180
 129.000, -2.290
 130.000, -2.400
 131.000, -2.500
 132.000, -2.610
 133.000, -2.720
 134.000, -2.820
 135.000, -2.930
 136.000, -3.030
 137.000, -3.130
 138.000, -3.230
 139.000, -3.330
 140.000, -3.420
 141.000, -3.520
 142.000, -3.610
 143.000, -3.690
 144.000, -3.780
 145.000, -3.860
 146.000, -3.930
 147.000, -4.010
 148.000, -4.080
 149.000, -4.140
 150.000, -4.210
 151.000, -4.270
 152.000, -4.320
 153.000, -4.370
 154.000, -4.420
 155.000, -4.470
 156.000, -4.510
 157.000, -4.550
 158.000, -4.590
 159.000, -4.620
 160.000, -4.650
 161.000, -4.680
 162.000, -4.710
 163.000, -4.730
 164.000, -4.750
 165.000, -4.770
 166.000, -4.790
 167.000, -4.800
 168.000, -4.810
 169.000, -4.830
 170.000, -4.840
 171.000, -4.850
 172.000, -4.850
 173.000, -4.860
 174.000, -4.870
 175.000, -4.870
 176.000, -4.870
 177.000, -4.880
 178.000, -4.880
 179.000, -4.880
PATCUT:,EL
POLARI:,V/V
NUPOIN:,360
FSTLST:,-180,179
-180.000, -2.520
-179.000, -2.600
-178.000, -2.750
-177.000, -3.000
-176.000, -3.330
-175.000, -3.750
-174.000, -4.260
-173.000, -4.870
-172.000, -5.590
-171.000, -6.440
-170.000, -7.410
-169.000, -8.550
-168.000, -9.870
-167.000,-11.430
-166.000,-13.280
-165.000,-15.570
-164.000,-18.500
-163.000,-22.590
-162.000,-29.350
-161.000,-35.770
-160.000,-27.080
-159.000,-22.680
-158.000,-20.100
-157.000,-18.410
-156.000,-17.260
-155.000,-16.490
-154.000,-16.010
-153.000,-15.750
-152.000,-15.690
-151.000,-15.810
-150.000,-16.100
-149.000,-16.550
-148.000,-17.160
-147.000,-17.960
-146.000,-18.950
-145.000,-20.180
-144.000,-21.690
-143.000,-23.580
-142.000,-26.030
-141.000,-29.390
-140.000,-34.490
-139.000,-41.110
-138.000,-35.850
-137.000,-30.820
-136.000,-27.710
-135.000,-25.590
-134.000,-24.040
-133.000,-22.870
-132.000,-21.990
-131.000,-21.320
-130.000,-20.830
-129.000,-20.470
-128.000,-20.250
-127.000,-20.130
-126.000,-20.110
-125.000,-20.180
-124.000,-20.340
-123.000,-20.580
-122.000,-20.890
-121.000,-21.270
-120.000,-21.720
-119.000,-22.240
-118.000,-22.820
-117.000,-23.460
-116.000,-24.150
-115.000,-24.890
-114.000,-25.670
-113.000,-26.470
-112.000,-27.280
-111.000,-28.050
-110.000,-28.770
-109.000,-29.390
-108.000,-29.900
-107.000,-30.270
-106.000,-30.520
-105.000,-30.650
-104.000,-30.710
-103.000,-30.720
-102.000,-30.710
-101.000,-30.700
-100.000,-30.710
 -99.000,-30.760
 -98.000,-30.830
 -97.000,-30.940
 -96.000,-31.080
 -95.000,-31.250
 -94.000,-31.450
 -93.000,-31.660
 -92.000,-31.880
 -91.000,-32.110
 -90.000,-32.340
 -89.000,-32.570
 -88.000,-32.810
 -87.000,-33.060
 -86.000,-33.330
 -85.000,-33.640
 -84.000,-34.010
 -83.000,-34.470
 -82.000,-35.040
 -81.000,-35.770
 -80.000,-36.660
 -79.000,-37.730
 -78.000,-38.850
 -77.000,-39.630
 -76.000,-39.370
 -75.000,-37.850
 -74.000,-35.670
 -73.000,-33.420
 -72.000,-31.320
 -71.000,-29.430
 -70.000,-27.730
 -69.000,-26.210
 -68.000,-24.830
 -67.000,-23.580
 -66.000,-22.450
 -65.000,-21.430
 -64.000,-20.500
 -63.000,-19.660
 -62.000,-18.900
 -61.000,-18.230
 -60.000,-17.630
 -59.000,-17.110
 -58.000,-16.670
 -57.000,-16.310
 -56.000,-16.020
 -55.000,-15.810
 -54.000,-15.690
 -53.000,-15.650
 -52.000,-15.710
 -51.000,-15.880
 -50.000,-16.150
 -49.000,-16.570
 -48.000,-17.130
 -47.000,-17.870
 -46.000,-18.850
 -45.000,-20.120
 -44.000,-21.810
 -43.000,-24.150
 -42.000,-27.670
 -41.000,-34.180
 -40.000,-45.530
 -39.000,-31.150
 -38.000,-25.750
 -37.000,-22.450
 -36.000,-20.110
 -35.000,-18.330
 -34.000,-16.940
 -33.000,-15.840
 -32.000,-14.970
 -31.000,-14.310
 -30.000,-13.840
 -29.000,-13.530
 -28.000,-13.410
 -27.000,-13.460
 -26.000,-13.720
 -25.000,-14.220
 -24.000,-15.000
 -23.000,-16.170
 -22.000,-17.910
 -21.000,-20.600
 -20.000,-25.400
 -19.000,-41.080
 -18.000,-27.490
 -17.000,-20.210
 -16.000,-16.050
 -15.000,-13.100
 -14.000,-10.810
 -13.000, -8.940
 -12.000, -7.370
 -11.000, -6.040
 -10.000, -4.900
  -9.000, -3.910
  -8.000, -3.060
  -7.000, -2.330
  -6.000, -1.720
  -5.000, -1.200
  -4.000, -0.780
  -3.000, -0.450
  -2.000, -0.220
  -1.000, -0.070
   0.000,  0.000
   1.000, -0.020
   2.000, -0.120
   3.000, -0.320
   4.000, -0.600
   5.000, -0.970
   6.000, -1.450
   7.000, -2.030
   8.000, -2.730
   9.000, -3.550
  10.000, -4.510
  11.000, -5.650
  12.000, -6.980
  13.000, -8.560
  14.000,-10.480
  15.000,-12.870
  16.000,-16.010
  17.000,-20.630
  18.000,-29.760
  19.000,-32.870
  20.000,-22.840
  21.000,-18.770
  22.000,-16.380
  23.000,-14.810
  24.000,-13.770
  25.000,-13.080
  26.000,-12.680
  27.000,-12.520
  28.000,-12.560
  29.000,-12.790
  30.000,-13.200
  31.000,-13.810
  32.000,-14.620
  33.000,-15.650
  34.000,-16.950
  35.000,-18.610
  36.000,-20.740
  37.000,-23.630
  38.000,-27.920
  39.000,-35.650
  40.000,-36.300
  41.000,-28.710
  42.000,-24.680
  43.000,-22.100
  44.000,-20.270
  45.000,-18.920
  46.000,-17.900
  47.000,-17.120
  48.000,-16.530
  49.000,-16.110
  50.000,-15.810
  51.000,-15.640
  52.000,-15.560
  53.000,-15.590
  54.000,-15.700
  55.000,-15.890
  56.000,-16.170
  57.000,-16.520
  58.000,-16.950
  59.000,-17.450
  60.000,-18.030
  61.000,-18.680
  62.000,-19.420
  63.000,-20.250
  64.000,-21.170
  65.000,-22.200
  66.000,-23.350
  67.000,-24.630
  68.000,-26.070
  69.000,-27.710
  70.000,-29.610
  71.000,-31.840
  72.000,-34.530
  73.000,-37.880
  74.000,-41.890
  75.000,-44.410
  76.000,-42.370
  77.000,-39.470
  78.000,-37.300
  79.000,-35.740
  80.000,-34.630
  81.000,-33.850
  82.000,-33.310
  83.000,-32.980
  84.000,-32.800
  85.000,-32.770
  86.000,-32.870
  87.000,-33.070
  88.000,-33.380
  89.000,-33.790
  90.000,-34.290
  91.000,-34.880
  92.000,-35.540
  93.000,-36.290
  94.000,-37.100
  95.000,-37.970
  96.000,-38.900
  97.000,-39.880
  98.000,-40.900
  99.000,-41.960
 100.000,-43.050
 101.000,-44.180
 102.000,-45.260
 103.000,-46.120
 104.000,-46.380
 105.000,-45.650
 106.000,-44.060
 107.000,-42.040
 108.000,-39.960
 109.000,-37.980
 110.000,-36.130
 111.000,-34.440
 112.000,-32.890
 113.000,-31.460
 114.000,-30.160
 115.000,-28.950
 116.000,-27.840
 117.000,-26.820
 118.000,-25.890
 119.000,-25.030
 120.000,-24.250
 121.000,-23.540
 122.000,-22.900
 123.000,-22.340
 124.000,-21.850
 125.000,-21.430
 126.000,-21.090
 127.000,-20.830
 128.000,-20.650
 129.000,-20.580
 130.000,-20.600
 131.000,-20.750
 132.000,-21.030
 133.000,-21.470
 134.000,-22.110
 135.000,-22.990
 136.000,-24.190
 137.000,-25.840
 138.000,-28.180
 139.000,-31.560
 140.000,-35.640
 141.000,-34.190
 142.000,-29.430
 143.000,-25.790
 144.000,-23.090
 145.000,-21.000
 146.000,-19.350
 147.000,-18.010
 148.000,-16.940
 149.000,-16.090
 150.000,-15.450
 151.000,-14.990
 152.000,-14.720
 153.000,-14.640
 154.000,-14.770
 155.000,-15.140
 156.000,-15.790
 157.000,-16.800
 158.000,-18.310
 159.000,-20.620
 160.000,-24.470
 161.000,-32.810
 162.000,-31.960
 163.000,-23.000
 164.000,-18.340
 165.000,-15.170
 166.000,-12.780
 167.000,-10.870
 168.000, -9.300
 169.000, -7.980
 170.000, -6.860
 171.000, -5.910
 172.000, -5.110
 173.000, -4.440
 174.000, -3.880
 175.000, -3.420
 176.000, -3.060
 177.000, -2.800
 178.000, -2.620
 179.000, -2.530
ENDFIL:,EOF
