REVNUM:,NSMA WG16.99.050
REVDAT:,19990520
ANTMAN:,KATHREIN
MODNUM:,K5231187
DESCR1:,Panel
DESCR2:,7.3 dBd - Vertical polarization
DESCR3:,56.0 degree
DTDATA:,00
LOWFRQ:,87.5
HGHFRQ:,108
GUNITS:,DBD/DBR
MDGAIN:,7.3
AZWIDT:,56.0
ELWIDT:,72.0
ELTILT:,0.0
ANTLEN:,1.74
ANTWID:,2.49
ANTDEP:,0.73
ANTWGT:,64.1
PATTYP:,TYPICAL
NOFREQ:,1
PATFRE:,100.0
NUMCUT:,2
PATCUT:,AZ
POLARI:,V/V
NUPOIN:,360
FSTLST:,-180,179
-180.000,-17.850,
-179.000,-17.860,
-178.000,-17.890,
-177.000,-17.940,
-176.000,-18.010,
-175.000,-18.110,
-174.000,-18.220,
-173.000,-18.360,
-172.000,-18.520,
-171.000,-18.700,
-170.000,-18.900,
-169.000,-19.130,
-168.000,-19.380,
-167.000,-19.660,
-166.000,-19.960,
-165.000,-20.290,
-164.000,-20.650,
-163.000,-21.040,
-162.000,-21.460,
-161.000,-21.910,
-160.000,-22.400,
-159.000,-22.920,
-158.000,-23.490,
-157.000,-24.100,
-156.000,-24.760,
-155.000,-25.470,
-154.000,-26.240,
-153.000,-27.070,
-152.000,-27.980,
-151.000,-28.950,
-150.000,-30.010,
-149.000,-31.160,
-148.000,-32.370,
-147.000,-33.610,
-146.000,-34.780,
-145.000,-35.740,
-144.000,-36.260,
-143.000,-36.200,
-142.000,-35.630,
-141.000,-34.750,
-140.000,-33.750,
-139.000,-32.750,
-138.000,-31.810,
-137.000,-30.930,
-136.000,-30.130,
-135.000,-29.410,
-134.000,-28.750,
-133.000,-28.140,
-132.000,-27.590,
-131.000,-27.080,
-130.000,-26.610,
-129.000,-26.170,
-128.000,-25.760,
-127.000,-25.380,
-126.000,-25.020,
-125.000,-24.680,
-124.000,-24.360,
-123.000,-24.050,
-122.000,-23.750,
-121.000,-23.470,
-120.000,-23.200,
-119.000,-22.940,
-118.000,-22.680,
-117.000,-22.440,
-116.000,-22.200,
-115.000,-21.970,
-114.000,-21.750,
-113.000,-21.530,
-112.000,-21.320,
-111.000,-21.120,
-110.000,-20.920,
-109.000,-20.740,
-108.000,-20.550,
-107.000,-20.380,
-106.000,-20.220,
-105.000,-20.060,
-104.000,-19.910,
-103.000,-19.770,
-102.000,-19.630,
-101.000,-19.510,
-100.000,-19.390,
-99.000,-19.290,
-98.000,-19.190,
-97.000,-19.100,
-96.000,-19.020,
-95.000,-18.950,
-94.000,-18.890,
-93.000,-18.840,
-92.000,-18.800,
-91.000,-18.770,
-90.000,-18.750,
-89.000,-18.740,
-88.000,-18.730,
-87.000,-18.730,
-86.000,-18.740,
-85.000,-18.760,
-84.000,-18.780,
-83.000,-18.800,
-82.000,-18.830,
-81.000,-18.860,
-80.000,-18.880,
-79.000,-18.890,
-78.000,-18.900,
-77.000,-18.890,
-76.000,-18.870,
-75.000,-18.820,
-74.000,-18.750,
-73.000,-18.650,
-72.000,-18.520,
-71.000,-18.350,
-70.000,-18.150,
-69.000,-17.910,
-68.000,-17.630,
-67.000,-17.320,
-66.000,-16.970,
-65.000,-16.600,
-64.000,-16.200,
-63.000,-15.780,
-62.000,-15.350,
-61.000,-14.900,
-60.000,-14.450,
-59.000,-13.990,
-58.000,-13.530,
-57.000,-13.060,
-56.000,-12.600,
-55.000,-12.140,
-54.000,-11.690,
-53.000,-11.250,
-52.000,-10.810,
-51.000,-10.380,
-50.000,-9.950,
-49.000,-9.540,
-48.000,-9.130,
-47.000,-8.740,
-46.000,-8.350,
-45.000,-7.980,
-44.000,-7.610,
-43.000,-7.250,
-42.000,-6.900,
-41.000,-6.570,
-40.000,-6.240,
-39.000,-5.920,
-38.000,-5.610,
-37.000,-5.310,
-36.000,-5.020,
-35.000,-4.730,
-34.000,-4.460,
-33.000,-4.190,
-32.000,-3.940,
-31.000,-3.690,
-30.000,-3.450,
-29.000,-3.220,
-28.000,-3.000,
-27.000,-2.790,
-26.000,-2.580,
-25.000,-2.380,
-24.000,-2.190,
-23.000,-2.010,
-22.000,-1.840,
-21.000,-1.680,
-20.000,-1.520,
-19.000,-1.370,
-18.000,-1.230,
-17.000,-1.090,
-16.000,-0.970,
-15.000,-0.850,
-14.000,-0.740,
-13.000,-0.640,
-12.000,-0.540,
-11.000,-0.460,
-10.000,-0.380,
-9.000,-0.310,
-8.000,-0.240,
-7.000,-0.180,
-6.000,-0.140,
-5.000,-0.090,
-4.000,-0.060,
-3.000,-0.030,
-2.000,-0.020,
-1.000,0.000,
0.000,0.000,
1.000,0.000,
2.000,-0.020,
3.000,-0.030,
4.000,-0.060,
5.000,-0.090,
6.000,-0.140,
7.000,-0.180,
8.000,-0.240,
9.000,-0.310,
10.000,-0.380,
11.000,-0.460,
12.000,-0.540,
13.000,-0.640,
14.000,-0.740,
15.000,-0.850,
16.000,-0.970,
17.000,-1.090,
18.000,-1.230,
19.000,-1.370,
20.000,-1.520,
21.000,-1.680,
22.000,-1.840,
23.000,-2.010,
24.000,-2.190,
25.000,-2.380,
26.000,-2.580,
27.000,-2.790,
28.000,-3.000,
29.000,-3.220,
30.000,-3.450,
31.000,-3.690,
32.000,-3.940,
33.000,-4.190,
34.000,-4.460,
35.000,-4.730,
36.000,-5.020,
37.000,-5.310,
38.000,-5.610,
39.000,-5.920,
40.000,-6.240,
41.000,-6.570,
42.000,-6.900,
43.000,-7.250,
44.000,-7.610,
45.000,-7.980,
46.000,-8.350,
47.000,-8.740,
48.000,-9.130,
49.000,-9.540,
50.000,-9.950,
51.000,-10.380,
52.000,-10.810,
53.000,-11.250,
54.000,-11.690,
55.000,-12.140,
56.000,-12.600,
57.000,-13.060,
58.000,-13.530,
59.000,-13.990,
60.000,-14.450,
61.000,-14.900,
62.000,-15.350,
63.000,-15.780,
64.000,-16.200,
65.000,-16.600,
66.000,-16.970,
67.000,-17.320,
68.000,-17.630,
69.000,-17.910,
70.000,-18.150,
71.000,-18.350,
72.000,-18.520,
73.000,-18.650,
74.000,-18.750,
75.000,-18.820,
76.000,-18.870,
77.000,-18.890,
78.000,-18.900,
79.000,-18.890,
80.000,-18.880,
81.000,-18.860,
82.000,-18.830,
83.000,-18.800,
84.000,-18.780,
85.000,-18.760,
86.000,-18.740,
87.000,-18.730,
88.000,-18.730,
89.000,-18.740,
90.000,-18.750,
91.000,-18.770,
92.000,-18.800,
93.000,-18.840,
94.000,-18.890,
95.000,-18.950,
96.000,-19.020,
97.000,-19.100,
98.000,-19.190,
99.000,-19.290,
100.000,-19.390,
101.000,-19.510,
102.000,-19.630,
103.000,-19.770,
104.000,-19.910,
105.000,-20.060,
106.000,-20.220,
107.000,-20.380,
108.000,-20.550,
109.000,-20.740,
110.000,-20.920,
111.000,-21.120,
112.000,-21.320,
113.000,-21.530,
114.000,-21.750,
115.000,-21.970,
116.000,-22.200,
117.000,-22.440,
118.000,-22.680,
119.000,-22.940,
120.000,-23.200,
121.000,-23.470,
122.000,-23.750,
123.000,-24.050,
124.000,-24.360,
125.000,-24.680,
126.000,-25.020,
127.000,-25.380,
128.000,-25.760,
129.000,-26.170,
130.000,-26.610,
131.000,-27.080,
132.000,-27.590,
133.000,-28.140,
134.000,-28.750,
135.000,-29.410,
136.000,-30.130,
137.000,-30.930,
138.000,-31.810,
139.000,-32.750,
140.000,-33.750,
141.000,-34.750,
142.000,-35.630,
143.000,-36.200,
144.000,-36.260,
145.000,-35.740,
146.000,-34.780,
147.000,-33.610,
148.000,-32.370,
149.000,-31.160,
150.000,-30.010,
151.000,-28.950,
152.000,-27.980,
153.000,-27.070,
154.000,-26.240,
155.000,-25.470,
156.000,-24.760,
157.000,-24.100,
158.000,-23.490,
159.000,-22.920,
160.000,-22.400,
161.000,-21.910,
162.000,-21.460,
163.000,-21.040,
164.000,-20.650,
165.000,-20.290,
166.000,-19.960,
167.000,-19.660,
168.000,-19.380,
169.000,-19.130,
170.000,-18.900,
171.000,-18.700,
172.000,-18.520,
173.000,-18.360,
174.000,-18.220,
175.000,-18.110,
176.000,-18.010,
177.000,-17.940,
178.000,-17.890,
179.000,-17.860,
PATCUT:,EL
POLARI:,V/V
NUPOIN:,360
FSTLST:,-180,179
-180.000,-17.850,
-179.000,-17.860,
-178.000,-17.890,
-177.000,-17.940,
-176.000,-18.010,
-175.000,-18.110,
-174.000,-18.220,
-173.000,-18.360,
-172.000,-18.520,
-171.000,-18.700,
-170.000,-18.900,
-169.000,-19.130,
-168.000,-19.380,
-167.000,-19.660,
-166.000,-19.970,
-165.000,-20.310,
-164.000,-20.670,
-163.000,-21.070,
-162.000,-21.490,
-161.000,-21.960,
-160.000,-22.460,
-159.000,-22.990,
-158.000,-23.570,
-157.000,-24.180,
-156.000,-24.830,
-155.000,-25.510,
-154.000,-26.210,
-153.000,-26.920,
-152.000,-27.620,
-151.000,-28.250,
-150.000,-28.780,
-149.000,-29.150,
-148.000,-29.310,
-147.000,-29.230,
-146.000,-28.950,
-145.000,-28.500,
-144.000,-27.930,
-143.000,-27.310,
-142.000,-26.670,
-141.000,-26.030,
-140.000,-25.410,
-139.000,-24.830,
-138.000,-24.280,
-137.000,-23.770,
-136.000,-23.290,
-135.000,-22.860,
-134.000,-22.460,
-133.000,-22.090,
-132.000,-21.750,
-131.000,-21.450,
-130.000,-21.170,
-129.000,-20.930,
-128.000,-20.710,
-127.000,-20.520,
-126.000,-20.350,
-125.000,-20.200,
-124.000,-20.080,
-123.000,-19.990,
-122.000,-19.910,
-121.000,-19.860,
-120.000,-19.840,
-119.000,-19.830,
-118.000,-19.850,
-117.000,-19.890,
-116.000,-19.950,
-115.000,-20.040,
-114.000,-20.160,
-113.000,-20.300,
-112.000,-20.460,
-111.000,-20.660,
-110.000,-20.890,
-109.000,-21.150,
-108.000,-21.440,
-107.000,-21.770,
-106.000,-22.150,
-105.000,-22.570,
-104.000,-23.050,
-103.000,-23.580,
-102.000,-24.190,
-101.000,-24.870,
-100.000,-25.640,
-99.000,-26.520,
-98.000,-27.520,
-97.000,-28.660,
-96.000,-29.950,
-95.000,-31.360,
-94.000,-32.750,
-93.000,-33.750,
-92.000,-33.830,
-91.000,-32.850,
-90.000,-31.260,
-89.000,-29.530,
-88.000,-27.880,
-87.000,-26.370,
-86.000,-25.010,
-85.000,-23.780,
-84.000,-22.660,
-83.000,-21.630,
-82.000,-20.690,
-81.000,-19.810,
-80.000,-18.990,
-79.000,-18.230,
-78.000,-17.510,
-77.000,-16.830,
-76.000,-16.190,
-75.000,-15.580,
-74.000,-15.000,
-73.000,-14.450,
-72.000,-13.920,
-71.000,-13.410,
-70.000,-12.930,
-69.000,-12.460,
-68.000,-12.010,
-67.000,-11.570,
-66.000,-11.150,
-65.000,-10.750,
-64.000,-10.360,
-63.000,-9.980,
-62.000,-9.610,
-61.000,-9.260,
-60.000,-8.910,
-59.000,-8.580,
-58.000,-8.250,
-57.000,-7.940,
-56.000,-7.630,
-55.000,-7.330,
-54.000,-7.040,
-53.000,-6.760,
-52.000,-6.480,
-51.000,-6.220,
-50.000,-5.960,
-49.000,-5.700,
-48.000,-5.460,
-47.000,-5.220,
-46.000,-4.990,
-45.000,-4.760,
-44.000,-4.540,
-43.000,-4.330,
-42.000,-4.120,
-41.000,-3.920,
-40.000,-3.720,
-39.000,-3.530,
-38.000,-3.340,
-37.000,-3.160,
-36.000,-2.990,
-35.000,-2.820,
-34.000,-2.660,
-33.000,-2.500,
-32.000,-2.340,
-31.000,-2.200,
-30.000,-2.050,
-29.000,-1.910,
-28.000,-1.780,
-27.000,-1.650,
-26.000,-1.530,
-25.000,-1.410,
-24.000,-1.300,
-23.000,-1.190,
-22.000,-1.080,
-21.000,-0.990,
-20.000,-0.890,
-19.000,-0.800,
-18.000,-0.720,
-17.000,-0.640,
-16.000,-0.560,
-15.000,-0.490,
-14.000,-0.430,
-13.000,-0.360,
-12.000,-0.310,
-11.000,-0.260,
-10.000,-0.210,
-9.000,-0.170,
-8.000,-0.130,
-7.000,-0.100,
-6.000,-0.070,
-5.000,-0.050,
-4.000,-0.030,
-3.000,-0.010,
-2.000,0.000,
-1.000,0.000,
0.000,0.000,
1.000,0.000,
2.000,0.000,
3.000,-0.010,
4.000,-0.030,
5.000,-0.050,
6.000,-0.070,
7.000,-0.100,
8.000,-0.130,
9.000,-0.170,
10.000,-0.210,
11.000,-0.260,
12.000,-0.310,
13.000,-0.370,
14.000,-0.430,
15.000,-0.490,
16.000,-0.570,
17.000,-0.640,
18.000,-0.720,
19.000,-0.810,
20.000,-0.900,
21.000,-0.990,
22.000,-1.090,
23.000,-1.190,
24.000,-1.300,
25.000,-1.420,
26.000,-1.540,
27.000,-1.660,
28.000,-1.790,
29.000,-1.920,
30.000,-2.060,
31.000,-2.210,
32.000,-2.360,
33.000,-2.510,
34.000,-2.670,
35.000,-2.840,
36.000,-3.010,
37.000,-3.180,
38.000,-3.370,
39.000,-3.550,
40.000,-3.750,
41.000,-3.940,
42.000,-4.150,
43.000,-4.360,
44.000,-4.570,
45.000,-4.800,
46.000,-5.020,
47.000,-5.260,
48.000,-5.500,
49.000,-5.750,
50.000,-6.010,
51.000,-6.270,
52.000,-6.540,
53.000,-6.820,
54.000,-7.100,
55.000,-7.400,
56.000,-7.700,
57.000,-8.010,
58.000,-8.330,
59.000,-8.660,
60.000,-9.000,
61.000,-9.350,
62.000,-9.710,
63.000,-10.090,
64.000,-10.470,
65.000,-10.870,
66.000,-11.280,
67.000,-11.710,
68.000,-12.160,
69.000,-12.620,
70.000,-13.100,
71.000,-13.600,
72.000,-14.120,
73.000,-14.670,
74.000,-15.240,
75.000,-15.850,
76.000,-16.480,
77.000,-17.150,
78.000,-17.860,
79.000,-18.620,
80.000,-19.440,
81.000,-20.320,
82.000,-21.270,
83.000,-22.310,
84.000,-23.450,
85.000,-24.730,
86.000,-26.180,
87.000,-27.850,
88.000,-29.810,
89.000,-32.140,
90.000,-34.850,
91.000,-37.460,
92.000,-36.040,
93.000,-33.540,
94.000,-31.380,
95.000,-29.610,
96.000,-28.150,
97.000,-26.930,
98.000,-25.890,
99.000,-24.990,
100.000,-24.210,
101.000,-23.530,
102.000,-22.930,
103.000,-22.390,
104.000,-21.910,
105.000,-21.490,
106.000,-21.110,
107.000,-20.770,
108.000,-20.470,
109.000,-20.200,
110.000,-19.970,
111.000,-19.760,
112.000,-19.580,
113.000,-19.420,
114.000,-19.290,
115.000,-19.190,
116.000,-19.100,
117.000,-19.040,
118.000,-19.000,
119.000,-18.980,
120.000,-18.980,
121.000,-19.000,
122.000,-19.030,
123.000,-19.090,
124.000,-19.170,
125.000,-19.270,
126.000,-19.390,
127.000,-19.530,
128.000,-19.690,
129.000,-19.870,
130.000,-20.070,
131.000,-20.300,
132.000,-20.540,
133.000,-20.810,
134.000,-21.100,
135.000,-21.420,
136.000,-21.760,
137.000,-22.120,
138.000,-22.500,
139.000,-22.900,
140.000,-23.320,
141.000,-23.750,
142.000,-24.180,
143.000,-24.610,
144.000,-25.030,
145.000,-25.400,
146.000,-25.730,
147.000,-25.970,
148.000,-26.130,
149.000,-26.170,
150.000,-26.100,
151.000,-25.920,
152.000,-25.640,
153.000,-25.290,
154.000,-24.870,
155.000,-24.420,
156.000,-23.950,
157.000,-23.470,
158.000,-22.990,
159.000,-22.530,
160.000,-22.080,
161.000,-21.650,
162.000,-21.250,
163.000,-20.870,
164.000,-20.510,
165.000,-20.170,
166.000,-19.860,
167.000,-19.580,
168.000,-19.310,
169.000,-19.070,
170.000,-18.860,
171.000,-18.660,
172.000,-18.490,
173.000,-18.330,
174.000,-18.200,
175.000,-18.090,
176.000,-18.000,
177.000,-17.930,
178.000,-17.880,
179.000,-17.850,
ENDFIL:,EOF
