REVNUM:1.0, 
ANTMAN:,Sinclair Technologies Inc. 
MODNUM:,SY2062-SF11SNM(E5932)
DTDATA:,20161805
LOWFRQ:,220
HGHFRQ:,220
GUNITS:,DBD/DBR
MDGAIN:,6.5,0.0
AZWIDT:,46.9
FRTOBA:,0.1,0
ELTILT:,0,0
PATTYP:,typical
NOFREQ:,1
PATFRE:,220
NUMCUT:,2
PATCUT:,V
POLARI:,V/V
NUPOIN:,360
FSTLST:,-180.000,+179.000
-180.000,-0.090,
-179.000,-0.100,
-178.000,-0.090,
-177.000,-0.140,
-176.000,-0.120,
-175.000,-0.170,
-174.000,-0.240,
-173.000,-0.380,
-172.000,-0.430,
-171.000,-0.500,
-170.000,-0.630,
-169.000,-0.730,
-168.000,-0.920,
-167.000,-1.060,
-166.000,-1.230,
-165.000,-1.300,
-164.000,-1.550,
-163.000,-1.690,
-162.000,-1.870,
-161.000,-2.090,
-160.000,-2.350,
-159.000,-2.500,
-158.000,-2.730,
-157.000,-3.020,
-156.000,-3.210,
-155.000,-3.430,
-154.000,-3.700,
-153.000,-4.070,
-152.000,-4.300,
-151.000,-4.690,
-150.000,-4.990,
-149.000,-5.310,
-148.000,-5.770,
-147.000,-6.170,
-146.000,-6.630,
-145.000,-7.350,
-144.000,-7.950,
-143.000,-8.600,
-142.000,-9.520,
-141.000,-10.310,
-140.000,-11.000,
-139.000,-11.840,
-138.000,-12.780,
-137.000,-13.580,
-136.000,-14.490,
-135.000,-15.370,
-134.000,-16.100,
-133.000,-16.970,
-132.000,-17.670,
-131.000,-18.510,
-130.000,-19.310,
-129.000,-20.010,
-128.000,-20.730,
-127.000,-21.350,
-126.000,-21.560,
-125.000,-21.720,
-124.000,-21.530,
-123.000,-21.440,
-122.000,-21.160,
-121.000,-20.960,
-120.000,-20.800,
-119.000,-20.700,
-118.000,-20.540,
-117.000,-20.490,
-116.000,-20.590,
-115.000,-20.580,
-114.000,-20.770,
-113.000,-20.850,
-112.000,-21.240,
-111.000,-21.610,
-110.000,-22.160,
-109.000,-22.710,
-108.000,-23.080,
-107.000,-23.810,
-106.000,-24.560,
-105.000,-25.360,
-104.000,-26.240,
-103.000,-27.140,
-102.000,-28.060,
-101.000,-29.090,
-100.000,-30.260,
-99.000,-31.330,
-98.000,-31.570,
-97.000,-31.450,
-96.000,-31.590,
-95.000,-31.770,
-94.000,-32.070,
-93.000,-32.470,
-92.000,-33.040,
-91.000,-33.740,
-90.000,-34.730,
-89.000,-33.740,
-88.000,-33.040,
-87.000,-32.470,
-86.000,-32.070,
-85.000,-31.770,
-84.000,-31.590,
-83.000,-31.450,
-82.000,-31.570,
-81.000,-31.330,
-80.000,-30.260,
-79.000,-29.090,
-78.000,-28.060,
-77.000,-27.140,
-76.000,-26.240,
-75.000,-25.360,
-74.000,-24.560,
-73.000,-23.810,
-72.000,-23.080,
-71.000,-22.710,
-70.000,-22.160,
-69.000,-21.610,
-68.000,-21.240,
-67.000,-20.850,
-66.000,-20.770,
-65.000,-20.580,
-64.000,-20.590,
-63.000,-20.490,
-62.000,-20.540,
-61.000,-20.700,
-60.000,-20.800,
-59.000,-20.960,
-58.000,-21.160,
-57.000,-21.440,
-56.000,-21.530,
-55.000,-21.720,
-54.000,-21.560,
-53.000,-21.350,
-52.000,-20.730,
-51.000,-20.010,
-50.000,-19.310,
-49.000,-18.510,
-48.000,-17.670,
-47.000,-16.970,
-46.000,-16.100,
-45.000,-15.370,
-44.000,-14.490,
-43.000,-13.580,
-42.000,-12.780,
-41.000,-11.840,
-40.000,-11.000,
-39.000,-10.310,
-38.000,-9.520,
-37.000,-8.600,
-36.000,-7.950,
-35.000,-7.350,
-34.000,-6.630,
-33.000,-6.170,
-32.000,-5.770,
-31.000,-5.310,
-30.000,-4.990,
-29.000,-4.690,
-28.000,-4.300,
-27.000,-4.070,
-26.000,-3.700,
-25.000,-3.430,
-24.000,-3.210,
-23.000,-3.020,
-22.000,-2.730,
-21.000,-2.500,
-20.000,-2.350,
-19.000,-2.090,
-18.000,-1.870,
-17.000,-1.690,
-16.000,-1.550,
-15.000,-1.300,
-14.000,-1.230,
-13.000,-1.060,
-12.000,-0.920,
-11.000,-0.730,
-10.000,-0.630,
-9.000,-0.500,
-8.000,-0.430,
-7.000,-0.380,
-6.000,-0.240,
-5.000,-0.170,
-4.000,-0.120,
-3.000,-0.140,
-2.000,-0.090,
-1.000,-0.100,
0.000,-0.090,
1.000,0.000,
2.000,-0.110,
3.000,-0.140,
4.000,-0.230,
5.000,-0.220,
6.000,-0.240,
7.000,-0.310,
8.000,-0.460,
9.000,-0.500,
10.000,-0.680,
11.000,-0.750,
12.000,-0.940,
13.000,-1.100,
14.000,-1.190,
15.000,-1.400,
16.000,-1.510,
17.000,-1.670,
18.000,-1.860,
19.000,-2.020,
20.000,-2.240,
21.000,-2.530,
22.000,-2.780,
23.000,-2.980,
24.000,-3.200,
25.000,-3.490,
26.000,-3.830,
27.000,-3.980,
28.000,-4.350,
29.000,-4.600,
30.000,-4.960,
31.000,-5.230,
32.000,-5.610,
33.000,-6.020,
34.000,-6.460,
35.000,-7.100,
36.000,-7.610,
37.000,-8.230,
38.000,-8.940,
39.000,-9.750,
40.000,-10.650,
41.000,-11.520,
42.000,-12.340,
43.000,-13.260,
44.000,-14.080,
45.000,-14.890,
46.000,-15.670,
47.000,-16.420,
48.000,-17.220,
49.000,-17.940,
50.000,-18.760,
51.000,-19.670,
52.000,-20.510,
53.000,-21.230,
54.000,-21.800,
55.000,-22.140,
56.000,-22.170,
57.000,-22.200,
58.000,-22.090,
59.000,-21.890,
60.000,-21.570,
61.000,-21.480,
62.000,-21.300,
63.000,-21.130,
64.000,-21.180,
65.000,-21.140,
66.000,-21.140,
67.000,-21.350,
68.000,-21.450,
69.000,-21.730,
70.000,-22.140,
71.000,-22.430,
72.000,-22.880,
73.000,-23.500,
74.000,-24.110,
75.000,-24.800,
76.000,-25.580,
77.000,-26.410,
78.000,-27.190,
79.000,-28.180,
80.000,-28.950,
81.000,-29.920,
82.000,-31.230,
83.000,-33.040,
84.000,-35.240,
85.000,-36.610,
86.000,-37.660,
87.000,-38.660,
88.000,-38.980,
89.000,-38.980,
90.000,-38.980,
91.000,-38.980,
92.000,-38.980,
93.000,-38.660,
94.000,-37.660,
95.000,-36.610,
96.000,-35.240,
97.000,-33.040,
98.000,-31.230,
99.000,-29.920,
100.000,-28.950,
101.000,-28.180,
102.000,-27.190,
103.000,-26.410,
104.000,-25.580,
105.000,-24.800,
106.000,-24.110,
107.000,-23.500,
108.000,-22.880,
109.000,-22.430,
110.000,-22.140,
111.000,-21.730,
112.000,-21.450,
113.000,-21.350,
114.000,-21.140,
115.000,-21.140,
116.000,-21.180,
117.000,-21.130,
118.000,-21.300,
119.000,-21.480,
120.000,-21.570,
121.000,-21.890,
122.000,-22.090,
123.000,-22.200,
124.000,-22.170,
125.000,-22.140,
126.000,-21.800,
127.000,-21.230,
128.000,-20.510,
129.000,-19.670,
130.000,-18.760,
131.000,-17.940,
132.000,-17.220,
133.000,-16.420,
134.000,-15.670,
135.000,-14.890,
136.000,-14.080,
137.000,-13.260,
138.000,-12.340,
139.000,-11.520,
140.000,-10.650,
141.000,-9.750,
142.000,-8.940,
143.000,-8.230,
144.000,-7.610,
145.000,-7.100,
146.000,-6.460,
147.000,-6.020,
148.000,-5.610,
149.000,-5.230,
150.000,-4.960,
151.000,-4.600,
152.000,-4.350,
153.000,-3.980,
154.000,-3.830,
155.000,-3.490,
156.000,-3.200,
157.000,-2.980,
158.000,-2.780,
159.000,-2.530,
160.000,-2.240,
161.000,-2.020,
162.000,-1.860,
163.000,-1.670,
164.000,-1.510,
165.000,-1.400,
166.000,-1.190,
167.000,-1.100,
168.000,-0.940,
169.000,-0.750,
170.000,-0.680,
171.000,-0.500,
172.000,-0.460,
173.000,-0.310,
174.000,-0.240,
175.000,-0.220,
176.000,-0.230,
177.000,-0.140,
178.000,-0.110,
179.000,0.000,
PATCUT:,H
POLARI:,V/V
NUPOIN:,360
FSTLST:,-180.000,+179.000
-180.000,-0.040,
-179.000,-0.170,
-178.000,-0.140,
-177.000,0.000,
-176.000,-0.050,
-175.000,-0.140,
-174.000,-0.190,
-173.000,-0.140,
-172.000,-0.250,
-171.000,-0.290,
-170.000,-0.360,
-169.000,-0.460,
-168.000,-0.530,
-167.000,-0.670,
-166.000,-0.710,
-165.000,-0.750,
-164.000,-0.870,
-163.000,-1.090,
-162.000,-1.220,
-161.000,-1.410,
-160.000,-1.570,
-159.000,-1.680,
-158.000,-1.960,
-157.000,-2.150,
-156.000,-2.480,
-155.000,-2.710,
-154.000,-3.080,
-153.000,-3.350,
-152.000,-3.620,
-151.000,-4.100,
-150.000,-4.480,
-149.000,-4.830,
-148.000,-5.300,
-147.000,-5.840,
-146.000,-6.310,
-145.000,-6.820,
-144.000,-7.340,
-143.000,-7.890,
-142.000,-8.370,
-141.000,-9.020,
-140.000,-9.600,
-139.000,-10.240,
-138.000,-10.930,
-137.000,-11.680,
-136.000,-12.520,
-135.000,-13.540,
-134.000,-15.120,
-133.000,-16.860,
-132.000,-16.870,
-131.000,-17.090,
-130.000,-17.160,
-129.000,-17.210,
-128.000,-17.170,
-127.000,-17.480,
-126.000,-17.820,
-125.000,-16.570,
-124.000,-15.140,
-123.000,-13.940,
-122.000,-12.920,
-121.000,-12.330,
-120.000,-11.730,
-119.000,-11.180,
-118.000,-10.770,
-117.000,-10.440,
-116.000,-9.900,
-115.000,-9.610,
-114.000,-9.340,
-113.000,-9.060,
-112.000,-8.930,
-111.000,-8.650,
-110.000,-8.550,
-109.000,-8.490,
-108.000,-8.380,
-107.000,-8.300,
-106.000,-8.110,
-105.000,-8.130,
-104.000,-8.200,
-103.000,-8.270,
-102.000,-8.270,
-101.000,-8.280,
-100.000,-8.400,
-99.000,-8.550,
-98.000,-8.660,
-97.000,-8.800,
-96.000,-8.980,
-95.000,-9.280,
-94.000,-9.430,
-93.000,-9.540,
-92.000,-9.810,
-91.000,-10.210,
-90.000,-10.390,
-89.000,-10.210,
-88.000,-9.810,
-87.000,-9.540,
-86.000,-9.430,
-85.000,-9.280,
-84.000,-8.980,
-83.000,-8.800,
-82.000,-8.660,
-81.000,-8.550,
-80.000,-8.400,
-79.000,-8.280,
-78.000,-8.270,
-77.000,-8.270,
-76.000,-8.200,
-75.000,-8.130,
-74.000,-8.110,
-73.000,-8.300,
-72.000,-8.380,
-71.000,-8.490,
-70.000,-8.550,
-69.000,-8.650,
-68.000,-8.930,
-67.000,-9.060,
-66.000,-9.340,
-65.000,-9.610,
-64.000,-9.900,
-63.000,-10.440,
-62.000,-10.770,
-61.000,-11.180,
-60.000,-11.730,
-59.000,-12.330,
-58.000,-12.920,
-57.000,-13.940,
-56.000,-15.140,
-55.000,-16.570,
-54.000,-17.820,
-53.000,-17.480,
-52.000,-17.170,
-51.000,-17.210,
-50.000,-17.160,
-49.000,-17.090,
-48.000,-16.870,
-47.000,-16.860,
-46.000,-15.120,
-45.000,-13.540,
-44.000,-12.520,
-43.000,-11.680,
-42.000,-10.930,
-41.000,-10.240,
-40.000,-9.600,
-39.000,-9.020,
-38.000,-8.370,
-37.000,-7.890,
-36.000,-7.340,
-35.000,-6.820,
-34.000,-6.310,
-33.000,-5.840,
-32.000,-5.300,
-31.000,-4.830,
-30.000,-4.480,
-29.000,-4.100,
-28.000,-3.620,
-27.000,-3.350,
-26.000,-3.080,
-25.000,-2.710,
-24.000,-2.480,
-23.000,-2.150,
-22.000,-1.960,
-21.000,-1.680,
-20.000,-1.570,
-19.000,-1.410,
-18.000,-1.220,
-17.000,-1.090,
-16.000,-0.870,
-15.000,-0.750,
-14.000,-0.710,
-13.000,-0.670,
-12.000,-0.530,
-11.000,-0.460,
-10.000,-0.360,
-9.000,-0.290,
-8.000,-0.250,
-7.000,-0.140,
-6.000,-0.190,
-5.000,-0.140,
-4.000,-0.050,
-3.000,0.000,
-2.000,-0.140,
-1.000,-0.170,
0.000,-0.040,
1.000,-0.180,
2.000,-0.160,
3.000,-0.150,
4.000,-0.210,
5.000,-0.180,
6.000,-0.290,
7.000,-0.340,
8.000,-0.480,
9.000,-0.490,
10.000,-0.560,
11.000,-0.640,
12.000,-0.670,
13.000,-0.940,
14.000,-0.880,
15.000,-0.980,
16.000,-1.120,
17.000,-1.250,
18.000,-1.620,
19.000,-1.620,
20.000,-1.760,
21.000,-1.970,
22.000,-2.200,
23.000,-2.410,
24.000,-2.690,
25.000,-2.900,
26.000,-3.170,
27.000,-3.500,
28.000,-3.740,
29.000,-4.060,
30.000,-4.410,
31.000,-4.800,
32.000,-5.140,
33.000,-5.610,
34.000,-5.970,
35.000,-6.350,
36.000,-6.700,
37.000,-7.120,
38.000,-7.600,
39.000,-8.040,
40.000,-8.520,
41.000,-8.960,
42.000,-9.450,
43.000,-9.880,
44.000,-10.440,
45.000,-10.880,
46.000,-11.340,
47.000,-11.990,
48.000,-12.390,
49.000,-13.020,
50.000,-13.700,
51.000,-14.280,
52.000,-15.030,
53.000,-15.680,
54.000,-16.140,
55.000,-16.350,
56.000,-16.450,
57.000,-16.250,
58.000,-15.940,
59.000,-15.640,
60.000,-15.150,
61.000,-14.510,
62.000,-14.290,
63.000,-13.800,
64.000,-13.370,
65.000,-13.020,
66.000,-12.690,
67.000,-12.440,
68.000,-12.150,
69.000,-11.950,
70.000,-11.890,
71.000,-11.700,
72.000,-11.530,
73.000,-11.480,
74.000,-11.480,
75.000,-11.310,
76.000,-11.440,
77.000,-11.340,
78.000,-11.360,
79.000,-11.450,
80.000,-11.520,
81.000,-11.640,
82.000,-11.790,
83.000,-11.830,
84.000,-11.980,
85.000,-12.160,
86.000,-12.300,
87.000,-12.530,
88.000,-12.850,
89.000,-13.280,
90.000,-13.510,
91.000,-13.280,
92.000,-12.850,
93.000,-12.530,
94.000,-12.300,
95.000,-12.160,
96.000,-11.980,
97.000,-11.830,
98.000,-11.790,
99.000,-11.640,
100.000,-11.520,
101.000,-11.450,
102.000,-11.360,
103.000,-11.340,
104.000,-11.440,
105.000,-11.310,
106.000,-11.480,
107.000,-11.480,
108.000,-11.530,
109.000,-11.700,
110.000,-11.890,
111.000,-11.950,
112.000,-12.150,
113.000,-12.440,
114.000,-12.690,
115.000,-13.020,
116.000,-13.370,
117.000,-13.800,
118.000,-14.290,
119.000,-14.510,
120.000,-15.150,
121.000,-15.640,
122.000,-15.940,
123.000,-16.250,
124.000,-16.450,
125.000,-16.350,
126.000,-16.140,
127.000,-15.680,
128.000,-15.030,
129.000,-14.280,
130.000,-13.700,
131.000,-13.020,
132.000,-12.390,
133.000,-11.990,
134.000,-11.340,
135.000,-10.880,
136.000,-10.440,
137.000,-9.880,
138.000,-9.450,
139.000,-8.960,
140.000,-8.520,
141.000,-8.040,
142.000,-7.600,
143.000,-7.120,
144.000,-6.700,
145.000,-6.350,
146.000,-5.970,
147.000,-5.610,
148.000,-5.140,
149.000,-4.800,
150.000,-4.410,
151.000,-4.060,
152.000,-3.740,
153.000,-3.500,
154.000,-3.170,
155.000,-2.900,
156.000,-2.690,
157.000,-2.410,
158.000,-2.200,
159.000,-1.970,
160.000,-1.760,
161.000,-1.620,
162.000,-1.620,
163.000,-1.250,
164.000,-1.120,
165.000,-0.980,
166.000,-0.880,
167.000,-0.940,
168.000,-0.670,
169.000,-0.640,
170.000,-0.560,
171.000,-0.490,
172.000,-0.480,
173.000,-0.340,
174.000,-0.290,
175.000,-0.180,
176.000,-0.210,
177.000,-0.150,
178.000,-0.160,
179.000,-0.180,
ENDFIL:,EOF
