REVNUM:1.0, 
ANTMAN:,Sinclair Technologies Inc. 
MODNUM:,SY206-SF1SNM
DTDATA:,19922002
LOWFRQ:,148
HGHFRQ:,148
GUNITS:,DBD/DBR
MDGAIN:,9.5,0.0
AZWIDT:,49.9
FRTOBA:,16.6,0
ELTILT:,0,0
PATTYP:,typical
NOFREQ:,1
PATFRE:,148
NUMCUT:,2
PATCUT:,V
POLARI:,V/V
NUPOIN:,360
FSTLST:,-180.000,+179.000
-180.000,-16.560,
-179.000,-16.610,
-178.000,-16.590,
-177.000,-16.550,
-176.000,-16.530,
-175.000,-16.550,
-174.000,-16.580,
-173.000,-16.730,
-172.000,-16.820,
-171.000,-16.820,
-170.000,-16.930,
-169.000,-17.000,
-168.000,-17.070,
-167.000,-17.210,
-166.000,-17.400,
-165.000,-17.510,
-164.000,-17.700,
-163.000,-17.880,
-162.000,-18.100,
-161.000,-18.270,
-160.000,-18.540,
-159.000,-18.910,
-158.000,-19.240,
-157.000,-19.590,
-156.000,-19.980,
-155.000,-20.380,
-154.000,-20.910,
-153.000,-21.510,
-152.000,-22.210,
-151.000,-23.000,
-150.000,-23.720,
-149.000,-24.590,
-148.000,-25.380,
-147.000,-26.100,
-146.000,-26.860,
-145.000,-27.860,
-144.000,-28.690,
-143.000,-29.720,
-142.000,-30.840,
-141.000,-32.300,
-140.000,-33.910,
-139.000,-35.270,
-138.000,-36.430,
-137.000,-36.740,
-136.000,-36.450,
-135.000,-35.590,
-134.000,-34.250,
-133.000,-33.070,
-132.000,-31.940,
-131.000,-30.950,
-130.000,-30.280,
-129.000,-29.710,
-128.000,-29.200,
-127.000,-28.800,
-126.000,-28.390,
-125.000,-28.060,
-124.000,-27.750,
-123.000,-27.550,
-122.000,-27.530,
-121.000,-27.360,
-120.000,-27.260,
-119.000,-27.250,
-118.000,-27.240,
-117.000,-27.330,
-116.000,-27.410,
-115.000,-27.480,
-114.000,-27.620,
-113.000,-27.830,
-112.000,-28.020,
-111.000,-28.220,
-110.000,-28.460,
-109.000,-28.600,
-108.000,-28.940,
-107.000,-29.150,
-106.000,-29.440,
-105.000,-29.780,
-104.000,-30.150,
-103.000,-30.550,
-102.000,-30.930,
-101.000,-31.350,
-100.000,-31.730,
-99.000,-32.040,
-98.000,-32.270,
-97.000,-32.580,
-96.000,-33.000,
-95.000,-33.290,
-94.000,-33.480,
-93.000,-33.400,
-92.000,-33.240,
-91.000,-32.970,
-90.000,-32.430,
-89.000,-31.800,
-88.000,-31.160,
-87.000,-30.520,
-86.000,-29.860,
-85.000,-29.340,
-84.000,-28.880,
-83.000,-28.380,
-82.000,-27.900,
-81.000,-27.440,
-80.000,-26.960,
-79.000,-26.480,
-78.000,-26.060,
-77.000,-25.750,
-76.000,-25.420,
-75.000,-25.110,
-74.000,-24.830,
-73.000,-24.650,
-72.000,-24.630,
-71.000,-24.580,
-70.000,-24.580,
-69.000,-24.750,
-68.000,-24.900,
-67.000,-25.270,
-66.000,-25.660,
-65.000,-26.150,
-64.000,-26.810,
-63.000,-27.510,
-62.000,-28.450,
-61.000,-29.600,
-60.000,-30.780,
-59.000,-31.780,
-58.000,-31.740,
-57.000,-30.310,
-56.000,-28.390,
-55.000,-26.510,
-54.000,-24.540,
-53.000,-22.730,
-52.000,-20.890,
-51.000,-19.240,
-50.000,-17.750,
-49.000,-16.620,
-48.000,-15.800,
-47.000,-15.090,
-46.000,-14.330,
-45.000,-13.610,
-44.000,-12.900,
-43.000,-12.180,
-42.000,-11.470,
-41.000,-10.710,
-40.000,-10.060,
-39.000,-9.650,
-38.000,-8.960,
-37.000,-8.180,
-36.000,-7.380,
-35.000,-6.830,
-34.000,-6.330,
-33.000,-5.820,
-32.000,-5.300,
-31.000,-4.840,
-30.000,-4.500,
-29.000,-4.210,
-28.000,-3.920,
-27.000,-3.590,
-26.000,-3.310,
-25.000,-3.030,
-24.000,-2.790,
-23.000,-2.600,
-22.000,-2.450,
-21.000,-2.130,
-20.000,-1.970,
-19.000,-1.760,
-18.000,-1.590,
-17.000,-1.410,
-16.000,-1.230,
-15.000,-1.080,
-14.000,-1.020,
-13.000,-0.870,
-12.000,-0.700,
-11.000,-0.650,
-10.000,-0.580,
-9.000,-0.450,
-8.000,-0.360,
-7.000,-0.220,
-6.000,-0.190,
-5.000,-0.180,
-4.000,-0.170,
-3.000,-0.100,
-2.000,-0.060,
-1.000,-0.020,
0.000,-0.060,
1.000,-0.020,
2.000,-0.030,
3.000,-0.110,
4.000,-0.150,
5.000,-0.180,
6.000,-0.220,
7.000,-0.280,
8.000,-0.420,
9.000,-0.490,
10.000,-0.550,
11.000,-0.610,
12.000,-0.760,
13.000,-0.920,
14.000,-1.050,
15.000,-1.220,
16.000,-1.370,
17.000,-1.530,
18.000,-1.760,
19.000,-1.980,
20.000,-2.150,
21.000,-2.300,
22.000,-2.480,
23.000,-2.800,
24.000,-2.990,
25.000,-3.290,
26.000,-3.550,
27.000,-3.810,
28.000,-4.140,
29.000,-4.510,
30.000,-4.850,
31.000,-5.260,
32.000,-5.800,
33.000,-6.260,
34.000,-6.750,
35.000,-7.330,
36.000,-7.940,
37.000,-8.590,
38.000,-9.320,
39.000,-10.180,
40.000,-10.990,
41.000,-11.760,
42.000,-12.490,
43.000,-13.320,
44.000,-14.150,
45.000,-14.910,
46.000,-15.750,
47.000,-16.770,
48.000,-18.020,
49.000,-19.530,
50.000,-21.300,
51.000,-23.280,
52.000,-24.930,
53.000,-26.090,
54.000,-26.800,
55.000,-26.620,
56.000,-25.830,
57.000,-24.820,
58.000,-23.690,
59.000,-22.660,
60.000,-21.610,
61.000,-20.710,
62.000,-19.880,
63.000,-19.180,
64.000,-18.620,
65.000,-18.240,
66.000,-17.920,
67.000,-17.670,
68.000,-17.560,
69.000,-17.390,
70.000,-17.320,
71.000,-17.300,
72.000,-17.300,
73.000,-17.370,
74.000,-17.480,
75.000,-17.560,
76.000,-17.780,
77.000,-17.980,
78.000,-18.140,
79.000,-18.430,
80.000,-18.760,
81.000,-19.080,
82.000,-19.540,
83.000,-19.950,
84.000,-20.510,
85.000,-20.920,
86.000,-21.470,
87.000,-22.100,
88.000,-22.720,
89.000,-23.230,
90.000,-23.670,
91.000,-24.260,
92.000,-24.630,
93.000,-25.010,
94.000,-25.470,
95.000,-25.940,
96.000,-26.330,
97.000,-26.670,
98.000,-26.910,
99.000,-27.260,
100.000,-27.570,
101.000,-27.720,
102.000,-27.820,
103.000,-27.970,
104.000,-28.010,
105.000,-27.970,
106.000,-28.000,
107.000,-27.830,
108.000,-27.710,
109.000,-27.550,
110.000,-27.460,
111.000,-27.260,
112.000,-27.030,
113.000,-26.790,
114.000,-26.600,
115.000,-26.460,
116.000,-26.330,
117.000,-26.240,
118.000,-26.090,
119.000,-26.100,
120.000,-26.060,
121.000,-26.000,
122.000,-26.100,
123.000,-26.130,
124.000,-26.370,
125.000,-26.460,
126.000,-26.660,
127.000,-26.910,
128.000,-27.240,
129.000,-27.530,
130.000,-27.680,
131.000,-28.160,
132.000,-28.760,
133.000,-29.490,
134.000,-30.400,
135.000,-31.620,
136.000,-33.380,
137.000,-35.930,
138.000,-38.680,
139.000,-40.000,
140.000,-40.000,
141.000,-40.000,
142.000,-39.930,
143.000,-37.450,
144.000,-34.190,
145.000,-31.810,
146.000,-30.270,
147.000,-28.970,
148.000,-27.760,
149.000,-26.870,
150.000,-25.820,
151.000,-24.980,
152.000,-24.150,
153.000,-23.300,
154.000,-22.550,
155.000,-21.850,
156.000,-21.190,
157.000,-20.470,
158.000,-20.020,
159.000,-19.570,
160.000,-19.160,
161.000,-18.810,
162.000,-18.500,
163.000,-18.220,
164.000,-18.170,
165.000,-17.950,
166.000,-17.720,
167.000,-17.650,
168.000,-17.550,
169.000,-17.300,
170.000,-17.160,
171.000,-17.080,
172.000,-17.040,
173.000,-16.950,
174.000,-16.880,
175.000,-16.750,
176.000,-16.680,
177.000,-16.620,
178.000,-16.560,
179.000,-16.550,
PATCUT:,H
POLARI:,V/V
NUPOIN:,360
FSTLST:,-180.000,+179.000
-180.000,-17.250,
-179.000,-17.260,
-178.000,-17.280,
-177.000,-17.240,
-176.000,-17.280,
-175.000,-17.270,
-174.000,-17.340,
-173.000,-17.370,
-172.000,-17.450,
-171.000,-17.530,
-170.000,-17.530,
-169.000,-17.600,
-168.000,-17.720,
-167.000,-17.760,
-166.000,-17.890,
-165.000,-18.110,
-164.000,-18.300,
-163.000,-18.400,
-162.000,-18.620,
-161.000,-18.800,
-160.000,-18.960,
-159.000,-19.180,
-158.000,-19.350,
-157.000,-19.610,
-156.000,-19.790,
-155.000,-20.020,
-154.000,-20.190,
-153.000,-20.370,
-152.000,-20.570,
-151.000,-20.640,
-150.000,-20.750,
-149.000,-20.800,
-148.000,-20.820,
-147.000,-20.670,
-146.000,-20.640,
-145.000,-20.460,
-144.000,-20.240,
-143.000,-20.000,
-142.000,-19.690,
-141.000,-19.370,
-140.000,-19.070,
-139.000,-18.630,
-138.000,-18.340,
-137.000,-17.970,
-136.000,-17.690,
-135.000,-17.360,
-134.000,-17.100,
-133.000,-16.840,
-132.000,-16.580,
-131.000,-16.380,
-130.000,-16.200,
-129.000,-16.010,
-128.000,-15.820,
-127.000,-15.670,
-126.000,-15.420,
-125.000,-15.340,
-124.000,-15.230,
-123.000,-15.100,
-122.000,-15.000,
-121.000,-14.780,
-120.000,-14.680,
-119.000,-14.630,
-118.000,-14.510,
-117.000,-14.430,
-116.000,-14.310,
-115.000,-14.220,
-114.000,-14.160,
-113.000,-14.050,
-112.000,-13.990,
-111.000,-13.940,
-110.000,-13.820,
-109.000,-13.690,
-108.000,-13.610,
-107.000,-13.490,
-106.000,-13.390,
-105.000,-13.220,
-104.000,-13.070,
-103.000,-12.890,
-102.000,-12.700,
-101.000,-12.510,
-100.000,-12.350,
-99.000,-12.220,
-98.000,-12.000,
-97.000,-11.860,
-96.000,-11.740,
-95.000,-11.490,
-94.000,-11.270,
-93.000,-11.150,
-92.000,-10.990,
-91.000,-10.800,
-90.000,-10.700,
-89.000,-10.510,
-88.000,-10.450,
-87.000,-10.320,
-86.000,-10.270,
-85.000,-10.320,
-84.000,-10.260,
-83.000,-10.290,
-82.000,-10.320,
-81.000,-10.360,
-80.000,-10.420,
-79.000,-10.500,
-78.000,-10.670,
-77.000,-10.870,
-76.000,-11.030,
-75.000,-11.290,
-74.000,-11.490,
-73.000,-11.720,
-72.000,-11.920,
-71.000,-12.200,
-70.000,-12.580,
-69.000,-12.860,
-68.000,-13.170,
-67.000,-13.480,
-66.000,-13.650,
-65.000,-13.970,
-64.000,-14.220,
-63.000,-14.330,
-62.000,-14.410,
-61.000,-14.550,
-60.000,-14.510,
-59.000,-14.360,
-58.000,-14.230,
-57.000,-13.970,
-56.000,-13.630,
-55.000,-13.170,
-54.000,-12.740,
-53.000,-12.280,
-52.000,-11.710,
-51.000,-11.160,
-50.000,-10.500,
-49.000,-9.990,
-48.000,-9.400,
-47.000,-8.710,
-46.000,-8.140,
-45.000,-7.650,
-44.000,-7.130,
-43.000,-6.580,
-42.000,-6.100,
-41.000,-5.680,
-40.000,-5.300,
-39.000,-4.910,
-38.000,-4.630,
-37.000,-4.330,
-36.000,-4.020,
-35.000,-3.800,
-34.000,-3.540,
-33.000,-3.320,
-32.000,-3.040,
-31.000,-2.780,
-30.000,-2.650,
-29.000,-2.520,
-28.000,-2.290,
-27.000,-2.150,
-26.000,-2.000,
-25.000,-1.880,
-24.000,-1.680,
-23.000,-1.560,
-22.000,-1.450,
-21.000,-1.370,
-20.000,-1.190,
-19.000,-1.060,
-18.000,-1.010,
-17.000,-0.960,
-16.000,-0.850,
-15.000,-0.750,
-14.000,-0.700,
-13.000,-0.610,
-12.000,-0.550,
-11.000,-0.430,
-10.000,-0.420,
-9.000,-0.360,
-8.000,-0.300,
-7.000,-0.220,
-6.000,-0.210,
-5.000,-0.190,
-4.000,-0.200,
-3.000,-0.160,
-2.000,-0.120,
-1.000,-0.130,
0.000,-0.090,
1.000,-0.030,
2.000,-0.050,
3.000,-0.110,
4.000,-0.070,
5.000,-0.150,
6.000,-0.080,
7.000,-0.140,
8.000,-0.210,
9.000,-0.210,
10.000,-0.300,
11.000,-0.340,
12.000,-0.450,
13.000,-0.450,
14.000,-0.540,
15.000,-0.570,
16.000,-0.670,
17.000,-0.810,
18.000,-0.830,
19.000,-0.940,
20.000,-1.130,
21.000,-1.240,
22.000,-1.350,
23.000,-1.440,
24.000,-1.620,
25.000,-1.790,
26.000,-1.950,
27.000,-2.110,
28.000,-2.310,
29.000,-2.480,
30.000,-2.710,
31.000,-2.890,
32.000,-3.060,
33.000,-3.360,
34.000,-3.630,
35.000,-3.880,
36.000,-4.250,
37.000,-4.690,
38.000,-5.070,
39.000,-5.460,
40.000,-5.980,
41.000,-6.590,
42.000,-7.250,
43.000,-7.830,
44.000,-8.500,
45.000,-9.250,
46.000,-10.010,
47.000,-10.720,
48.000,-11.490,
49.000,-12.180,
50.000,-12.900,
51.000,-13.520,
52.000,-14.140,
53.000,-14.680,
54.000,-15.190,
55.000,-15.460,
56.000,-15.730,
57.000,-15.860,
58.000,-15.770,
59.000,-15.590,
60.000,-15.300,
61.000,-14.990,
62.000,-14.620,
63.000,-14.280,
64.000,-13.860,
65.000,-13.460,
66.000,-13.060,
67.000,-12.730,
68.000,-12.370,
69.000,-12.120,
70.000,-11.860,
71.000,-11.550,
72.000,-11.300,
73.000,-11.090,
74.000,-10.900,
75.000,-10.770,
76.000,-10.560,
77.000,-10.550,
78.000,-10.530,
79.000,-10.500,
80.000,-10.470,
81.000,-10.490,
82.000,-10.530,
83.000,-10.640,
84.000,-10.720,
85.000,-10.800,
86.000,-10.900,
87.000,-11.110,
88.000,-11.250,
89.000,-11.370,
90.000,-11.590,
91.000,-11.810,
92.000,-12.090,
93.000,-12.280,
94.000,-12.520,
95.000,-12.770,
96.000,-13.050,
97.000,-13.360,
98.000,-13.610,
99.000,-13.840,
100.000,-14.160,
101.000,-14.480,
102.000,-14.800,
103.000,-15.080,
104.000,-15.410,
105.000,-15.650,
106.000,-15.980,
107.000,-16.290,
108.000,-16.550,
109.000,-16.920,
110.000,-17.330,
111.000,-17.640,
112.000,-18.000,
113.000,-18.470,
114.000,-18.910,
115.000,-19.270,
116.000,-19.600,
117.000,-20.070,
118.000,-20.420,
119.000,-20.550,
120.000,-20.850,
121.000,-21.030,
122.000,-21.310,
123.000,-21.470,
124.000,-21.550,
125.000,-21.640,
126.000,-21.710,
127.000,-21.800,
128.000,-21.760,
129.000,-21.770,
130.000,-21.680,
131.000,-21.670,
132.000,-21.530,
133.000,-21.450,
134.000,-21.340,
135.000,-21.250,
136.000,-21.110,
137.000,-20.960,
138.000,-20.850,
139.000,-20.670,
140.000,-20.510,
141.000,-20.370,
142.000,-20.160,
143.000,-19.990,
144.000,-19.840,
145.000,-19.670,
146.000,-19.480,
147.000,-19.340,
148.000,-19.210,
149.000,-19.090,
150.000,-18.940,
151.000,-18.790,
152.000,-18.670,
153.000,-18.600,
154.000,-18.480,
155.000,-18.390,
156.000,-18.250,
157.000,-18.110,
158.000,-18.120,
159.000,-18.030,
160.000,-17.860,
161.000,-17.780,
162.000,-17.700,
163.000,-17.680,
164.000,-17.650,
165.000,-17.600,
166.000,-17.550,
167.000,-17.530,
168.000,-17.380,
169.000,-17.300,
170.000,-17.270,
171.000,-17.240,
172.000,-17.280,
173.000,-17.270,
174.000,-17.220,
175.000,-17.220,
176.000,-17.240,
177.000,-17.260,
178.000,-17.190,
179.000,-17.190,
ENDFIL:,EOF
